%OpenBCI Raw EXG Data
%Number of channels = 16
%Sample Rate = 125 Hz
%Board = OpenBCI_GUI$BoardCytonSerialDaisy
Sample Index, EXG Channel 0, EXG Channel 1, EXG Channel 2, EXG Channel 3, EXG Channel 4, EXG Channel 5, EXG Channel 6, EXG Channel 7, EXG Channel 8, EXG Channel 9, EXG Channel 10, EXG Channel 11, EXG Channel 12, EXG Channel 13, EXG Channel 14, EXG Channel 15, Accel Channel 0, Accel Channel 1, Accel Channel 2, Other, Other, Other, Other, Other, Other, Other, Analog Channel 0, Analog Channel 1, Analog Channel 2, Timestamp, Other, Timestamp (Formatted)
0.0, 35961.92281984363, 36141.85436270885, -11318.09637762265, 1903.005171180388, 6111.413968970057, 6341.726343837541, -5840.510826171735, 12185.656986910939, 561.3864137394922, -93750.01117587223, -1274.8988002418043, -17892.48202949548, -93750.01117587223, -2156.7868777259446, -3259.286672983965, -93750.01117587223, -0.002, 0.492, 0.106, 192.0, 127.5, 120.0, 7.5, 48.0, 1.5, 40.0, 0.0, 0.0, 0.0, 1.7076809619295156E9, 0.0, 2024-02-11 14:49:21.929
2.0, 35987.58262247832, 36146.145897644274, -11319.035150889773, 1903.6310200251366, 6111.101044547683, 6338.239471702514, -5851.552587932657, 12216.70355995936, 1122.0575716564144, -187500.02235174447, -2546.8918737044187, -35787.62391658115, -187500.02235174447, -4312.813796140408, -6487.2809037305005, -187500.02235174447, -0.002, 0.492, 0.106, 192.0, 0.0, 0.0, 0.0, 0.0, 0.0, 0.0, 0.0, 0.0, 0.0, 1.7076809642935123E9, 0.0, 2024-02-11 14:49:24.293
4.0, 36502.343297284046, 36593.58311815061, -11161.410648990948, 2109.200013780596, 6383.8593821357945, 6735.564081140052, -5647.615271522435, 12678.423545172638, 1088.59701020682, -187500.02235174447, -2553.619748785466, -35796.117579474165, -187500.02235174447, -4319.0722845878945, -6521.09909309138, -187500.02235174447, -0.002, 0.492, 0.106, 192.0, 0.0, 0.0, 0.0, 0.0, 0.0, 0.0, 0.0, 0.0, 0.0, 1.7076809643094852E9, 0.0, 2024-02-11 14:49:24.309
4.0, 36421.92172073385, 36643.002825141295, -11126.29605845166, 2123.9968686100087, 6430.03808618046, 6778.255913049688, -5659.975786206221, 12412.97422802141, 1088.59701020682, -187500.02235174447, -2553.619748785466, -35796.117579474165, -187500.02235174447, -4319.0722845878945, -6521.09909309138, -187500.02235174447, -0.003, 0.722, 0.17, 192.0, 127.5, 112.0, 14.5, 96.0, 3.5, 40.0, 0.0, 0.0, 0.0, 1.707680964325548E9, 0.0, 2024-02-11 14:49:24.325
4.0, 36491.18977680085, 36597.271155985734, -11165.053983337162, 2096.928906074632, 6379.299626266912, 6733.597127627984, -5636.126474872408, 12680.658719618168, 1088.59701020682, -187500.02235174447, -2553.619748785466, -35796.117579474165, -187500.02235174447, -4319.0722845878945, -6521.09909309138, -187500.02235174447, -0.0035, 0.847, 0.196, 192.0, 191.25, 168.0, 22.25, 96.0, 4.75, 140.0, 0.0, 0.0, 0.0, 1.707680964348591E9, 0.0, 2024-02-11 14:49:24.348
56.0, 36411.41640083986, 36637.37018553855, -11141.49524468127, 2112.351609748794, 6416.60468776282, 6768.398793744897, -5639.300422585061, 12415.902306545056, 1442.603938889973, -187500.02235174447, -2315.305449402982, -35776.91743098706, -187500.02235174447, -4230.246452122504, -6375.231608776046, -187500.02235174447, -0.0035, 0.847, 0.196, 192.0, 0.0, 0.0, 0.0, 0.0, 0.0, 0.0, 0.0, 0.0, 0.0, 1.7076809644116464E9, 0.0, 2024-02-11 14:49:24.411
58.0, 36471.36377946899, 36614.10201956058, -11160.49422746828, 2100.08050204283, 6393.180059573658, 6750.226825502733, -5675.018510224642, 12667.024155500432, 1467.7943548911041, -187500.02235174447, -2304.1295771753284, -35761.293561612794, -187500.02235174447, -4214.510824025968, -6334.149102467192, -187500.02235174447, -0.0035, 0.847, 0.196, 192.0, 0.0, 0.0, 0.0, 0.0, 0.0, 0.0, 0.0, 0.0, 0.0, 1.7076809648762336E9, 0.0, 2024-02-11 14:49:24.876
58.0, 36440.183095953835, 36634.889141904016, -11130.431131175892, 2127.282575044939, 6421.0079814205155, 6766.230674532732, -5640.283899341095, 12465.500827491383, 1467.7943548911041, -187500.02235174447, -2304.1295771753284, -35761.293561612794, -187500.02235174447, -4214.510824025968, -6334.149102467192, -187500.02235174447, -0.0035, 0.847, 0.196, 192.0, 0.0, 0.0, 0.0, 0.0, 0.0, 0.0, 0.0, 0.0, 0.0, 1.707680965148486E9, 0.0, 2024-02-11 14:49:25.148
58.0, 36419.64184279941, 36658.15730788199, -11126.184299729384, 2124.510958732481, 6428.160539646214, 6779.552314228095, -5650.342184345983, 12447.619431927138, 1467.7943548911041, -187500.02235174447, -2304.1295771753284, -35761.293561612794, -187500.02235174447, -4214.510824025968, -6334.149102467192, -187500.02235174447, -0.0035, 0.847, 0.196, 192.0, 0.0, 0.0, 0.0, 0.0, 0.0, 0.0, 0.0, 0.0, 0.0, 1.7076809652396288E9, 0.0, 2024-02-11 14:49:25.239
58.0, 36376.27945855611, 36480.4609394623, -11195.586466263112, 2022.9669836720211, 6319.9333929936165, 6667.123039617902, -5695.827984312533, 12710.699464166102, 1467.7943548911041, -187500.02235174447, -2304.1295771753284, -35761.293561612794, -187500.02235174447, -4214.510824025968, -6334.149102467192, -187500.02235174447, -0.00475, 0.9055, 0.21400000000000002, 192.0, 127.5, 104.0, 15.0, 16.0, 3.5, 32.0, 0.0, 0.0, 0.0, 1.7076809652396507E9, 0.0, 2024-02-11 14:49:25.239
58.0, 36143.7319092431, 36212.75409612108, -11288.212095285904, 1879.1782115910307, 6175.921103468073, 6516.204061055668, -5771.7121567383, 12470.798190927291, 1467.7943548911041, -187500.02235174447, -2304.1295771753284, -35761.293561612794, -187500.02235174447, -4214.510824025968, -6334.149102467192, -187500.02235174447, -0.00475, 0.9055, 0.21400000000000002, 192.0, 63.75, 52.0, 7.5, 8.0, 1.75, 16.0, 0.0, 0.0, 0.0, 1.7076809652396595E9, 0.0, 2024-02-11 14:49:25.239
58.0, 36159.981627462104, 36218.27497700155, -11262.775810095765, 1903.586316536226, 6185.532353583855, 6520.830872157917, -5751.819104173077, 12505.71161576648, 1467.7943548911041, -187500.02235174447, -2304.1295771753284, -35761.293561612794, -187500.02235174447, -4214.510824025968, -6334.149102467192, -187500.02235174447, -0.00475, 0.9055, 0.21400000000000002, 192.0, 31.875, 26.0, 3.75, 4.0, 0.875, 8.0, 0.0, 0.0, 0.0, 1.7076809652396672E9, 0.0, 2024-02-11 14:49:25.239
254.0, 36418.12192417645, 36453.54943913811, -11200.123870387539, 2017.7590272139344, 6305.605924797765, 6654.494304000653, -5721.554842180592, 12743.668287237679, 1361.869437917404, -187500.02235174447, -2325.341382663415, -35872.024103644384, -187500.02235174447, -4295.491194187545, -6365.173323771158, -187500.02235174447, -0.00475, 0.9055, 0.21400000000000002, 192.0, 0.0, 0.0, 0.0, 0.0, 0.0, 0.0, 0.0, 0.0, 0.0, 1.7076809652396772E9, 0.0, 2024-02-11 14:49:25.239
254.0, 36138.50160104056, 36230.76960215207, -11272.878798589563, 1890.1529181185865, 6193.735443798953, 6539.025192144536, -5739.27977553365, 12515.166403671075, 1361.869437917404, -187500.02235174447, -2325.341382663415, -35872.024103644384, -187500.02235174447, -4295.491194187545, -6365.173323771158, -187500.02235174447, -0.00475, 0.9055, 0.21400000000000002, 192.0, 0.0, 0.0, 0.0, 0.0, 0.0, 0.0, 0.0, 0.0, 0.0, 1.7076809652396843E9, 0.0, 2024-02-11 14:49:25.239
254.0, 36240.805535412495, 36261.83852694494, -11247.263699443782, 1936.8680640301782, 6231.487540183966, 6558.135933653824, -5713.731731621234, 12838.30557326145, 1361.869437917404, -187500.02235174447, -2325.341382663415, -35872.024103644384, -187500.02235174447, -4295.491194187545, -6365.173323771158, -187500.02235174447, -0.00475, 0.9055, 0.21400000000000002, 192.0, 0.0, 0.0, 0.0, 0.0, 0.0, 0.0, 0.0, 0.0, 0.0, 1.7076809652396915E9, 0.0, 2024-02-11 14:49:25.239
254.0, 36163.46849959713, 36227.595654439414, -11262.66405137349, 1911.7670550068683, 6201.245629935936, 6537.304107821478, -5733.08834231953, 12579.58413119127, 1361.869437917404, -187500.02235174447, -2325.341382663415, -35872.024103644384, -187500.02235174447, -4295.491194187545, -6365.173323771158, -187500.02235174447, -0.003375, 0.93475, 0.21900000000000003, 192.0, 127.5, 120.0, 15.0, 16.0, 3.5, 0.0, 0.0, 0.0, 0.0, 1.707680965239699E9, 0.0, 2024-02-11 14:49:25.239
254.0, 36448.63205535794, 36461.26079097519, -11187.40572779247, 2036.0874576672863, 6322.481491861522, 6667.8382954404715, -5702.287638460117, 12786.605988336325, 1361.869437917404, -187500.02235174447, -2325.341382663415, -35872.024103644384, -187500.02235174447, -4295.491194187545, -6365.173323771158, -187500.02235174447, -0.003375, 0.93475, 0.21900000000000003, 192.0, 63.75, 60.0, 7.5, 8.0, 1.75, 0.0, 0.0, 0.0, 0.0, 1.7076809652397056E9, 0.0, 2024-02-11 14:49:25.239
254.0, 36152.024406436016, 36099.520158710504, -11365.258558423347, 1799.8295187746905, 6097.578239152222, 6420.493891298043, -5857.498151957769, 12491.47355454845, 1361.869437917404, -187500.02235174447, -2325.341382663415, -35872.024103644384, -187500.02235174447, -4295.491194187545, -6365.173323771158, -187500.02235174447, -6.875E-4, 0.946375, 0.22150000000000003, 192.0, 31.875, 38.0, 18.25, 124.0, 4.375, 0.0, 0.0, 0.0, 0.0, 1.7076809652397125E9, 0.0, 2024-02-11 14:49:25.239
254.0, 36146.05649066645, 36246.79580292652, -11272.85644684511, 1902.4016740800946, 6203.570211359288, 6552.72681149564, -5752.735525695744, 12587.943683617556, 1361.869437917404, -187500.02235174447, -2325.341382663415, -35872.024103644384, -187500.02235174447, -4295.491194187545, -6365.173323771158, -187500.02235174447, -6.875E-4, 0.946375, 0.22150000000000003, 192.0, 15.9375, 19.0, 9.125, 62.0, 2.1875, 0.0, 0.0, 0.0, 0.0, 1.7076809652397196E9, 0.0, 2024-02-11 14:49:25.239
254.0, 36101.196539544646, 36121.00018513205, -11354.216796662426, 1799.2483734188527, 6101.422739198535, 6440.833978752373, -5849.451523953859, 12398.356187147641, 1361.869437917404, -187500.02235174447, -2325.341382663415, -35872.024103644384, -187500.02235174447, -4295.491194187545, -6365.173323771158, -187500.02235174447, -6.875E-4, 0.946375, 0.22150000000000003, 192.0, 7.96875, 9.5, 4.5625, 31.0, 1.09375, 0.0, 0.0, 0.0, 0.0, 1.7076809652397263E9, 0.0, 2024-02-11 14:49:25.239
254.0, 36472.213145758295, 36441.74771806571, -11194.826506951631, 2033.315841354828, 6315.150119680181, 6651.36505977691, -5721.666600902868, 12859.964413638641, 1361.869437917404, -187500.02235174447, -2325.341382663415, -35872.024103644384, -187500.02235174447, -4295.491194187545, -6365.173323771158, -187500.02235174447, -6.875E-4, 0.946375, 0.22150000000000003, 192.0, 3.984375, 4.75, 2.28125, 15.5, 0.546875, 0.0, 0.0, 0.0, 0.0, 1.7076809652817888E9, 0.0, 2024-02-11 14:49:25.281
254.0, 36194.00098252308, 36237.855105144394, -11262.12760950656, 1915.5668515642706, 6202.966714258995, 6539.695744478196, -5765.073688635074, 12675.070783504341, 1361.869437917404, -187500.02235174447, -2325.341382663415, -35872.024103644384, -187500.02235174447, -4295.491194187545, -6365.173323771158, -187500.02235174447, -6.875E-4, 0.946375, 0.22150000000000003, 192.0, 1.9921875, 2.375, 1.140625, 7.75, 0.2734375, 0.0, 0.0, 0.0, 0.0, 1.7076809652818313E9, 0.0, 2024-02-11 14:49:25.281
254.0, 36124.755278200544, 36119.18969383117, -11352.898043739564, 1805.395103144062, 6103.032064799317, 6437.727086273085, -5830.34078244457, 12465.389068769106, 1361.869437917404, -187500.02235174447, -2325.341382663415, -35872.024103644384, -187500.02235174447, -4295.491194187545, -6365.173323771158, -187500.02235174447, -6.875E-4, 0.946375, 0.22150000000000003, 192.0, 0.99609375, 1.1875, 0.5703125, 3.875, 0.13671875, 0.0, 0.0, 0.0, 0.0, 1.7076809652818415E9, 0.0, 2024-02-11 14:49:25.281
72.0, 36441.233627943235, 35932.3291101848, -11436.985306380428, 1759.1269921215764, 6006.986618874863, 6284.260008842946, -5906.157899636973, 14356.41370492145, 1329.3476497349322, -187500.02235174447, -2357.527894679057, -35930.96565377303, -187500.02235174447, -4324.034371856973, -6328.158834953169, -187500.02235174447, -6.875E-4, 0.946375, 0.22150000000000003, 192.0, 0.0, 0.0, 0.0, 0.0, 0.0, 0.0, 0.0, 0.0, 0.0, 1.707680965708214E9, 0.0, 2024-02-11 14:49:25.708
72.0, 36371.33972303149, 35848.10773707721, -11549.951022857551, 1625.0835806231, 5881.347463291581, 6193.17665018757, -5994.559048957712, 18223.533716623035, 1329.3476497349322, -187500.02235174447, -2357.527894679057, -35930.96565377303, -187500.02235174447, -4324.034371856973, -6328.158834953169, -187500.02235174447, -6.875E-4, 0.946375, 0.22150000000000003, 192.0, 0.0, 0.0, 0.0, 0.0, 0.0, 0.0, 0.0, 0.0, 0.0, 1.707680965708238E9, 0.0, 2024-02-11 14:49:25.708
72.0, 36392.05979014156, 35983.201680565086, -11398.786175106308, 1787.0666726907102, 6050.080782184695, 6341.659288604175, -5864.87422762802, 14122.79327187458, 1329.3476497349322, -187500.02235174447, -2357.527894679057, -35930.96565377303, -187500.02235174447, -4324.034371856973, -6328.158834953169, -187500.02235174447, -6.875E-4, 0.946375, 0.22150000000000003, 192.0, 0.0, 0.0, 0.0, 0.0, 0.0, 0.0, 0.0, 0.0, 0.0, 1.7076809657082474E9, 0.0, 2024-02-11 14:49:25.708
72.0, 37369.94861006124, 35494.32432583861, -11847.609203768874, 1448.3259854705318, 5631.857291681444, 5834.721724357811, -6351.851684075795, 19473.42091481935, 1329.3476497349322, -187500.02235174447, -2357.527894679057, -35930.96565377303, -187500.02235174447, -4324.034371856973, -6328.158834953169, -187500.02235174447, -6.875E-4, 0.946375, 0.22150000000000003, 192.0, 0.0, 0.0, 0.0, 0.0, 0.0, 0.0, 0.0, 0.0, 0.0, 1.7076809657082553E9, 0.0, 2024-02-11 14:49:25.708
52.0, 36422.25699690068, 35816.524722161856, -11576.840171437285, 1589.5890104280725, 5844.891768084975, 6161.7948009723195, -6036.155645389038, 18511.491240440755, 1393.3406941104763, -187500.02235174447, -2322.525062862046, -35892.34183935426, -187500.02235174447, -4282.616589381289, -6381.087765823337, -187500.02235174447, -0.00134375, 0.9571875, 0.21975, 192.0, 127.5, 120.0, 15.0, 32.0, 3.0, 104.0, 0.0, 0.0, 0.0, 1.7076809657082644E9, 0.0, 2024-02-11 14:49:25.708
52.0, 36558.3791206335, 35760.42184357904, -11626.751616805985, 1565.5832368830727, 5801.819956519599, 6106.027198556328, -6095.901858318074, 18940.532975260376, 1393.3406941104763, -187500.02235174447, -2322.525062862046, -35892.34183935426, -187500.02235174447, -4282.616589381289, -6381.087765823337, -187500.02235174447, -0.00134375, 0.9571875, 0.21975, 192.0, 63.75, 60.0, 7.5, 16.0, 1.5, 52.0, 0.0, 0.0, 0.0, 1.707680965708272E9, 0.0, 2024-02-11 14:49:25.708
52.0, 36354.37474898991, 36037.82934401385, -11360.341174643181, 1819.4767021509056, 6100.327503720225, 6398.008036376004, -5816.169776459906, 13788.008843422991, 1393.3406941104763, -187500.02235174447, -2322.525062862046, -35892.34183935426, -187500.02235174447, -4282.616589381289, -6381.087765823337, -187500.02235174447, -0.00134375, 0.9571875, 0.21975, 192.0, 31.875, 30.0, 3.75, 8.0, 0.75, 26.0, 0.0, 0.0, 0.0, 1.7076809657082791E9, 0.0, 2024-02-11 14:49:25.708
52.0, 37218.783762310006, 35574.70119889989, -11724.384036586767, 1583.084652791578, 5753.115505351485, 5926.810911513676, -6264.165790577626, 17868.588014672758, 1393.3406941104763, -187500.02235174447, -2322.525062862046, -35892.34183935426, -187500.02235174447, -4282.616589381289, -6381.087765823337, -187500.02235174447, -0.00134375, 0.9571875, 0.21975, 192.0, 15.9375, 15.0, 1.875, 4.0, 0.375, 13.0, 0.0, 0.0, 0.0, 1.7076809657082863E9, 0.0, 2024-02-11 14:49:25.708
52.0, 36622.238054542315, 35729.0846978527, -11653.059620029882, 1549.9370157643577, 5781.993959187742, 6081.01559651084, -6120.667591174554, 19172.767600151015, 1393.3406941104763, -187500.02235174447, -2322.525062862046, -35892.34183935426, -187500.02235174447, -4282.616589381289, -6381.087765823337, -187500.02235174447, -0.00134375, 0.9571875, 0.21975, 192.0, 7.96875, 7.5, 0.9375, 2.0, 0.1875, 6.5, 0.0, 0.0, 0.0, 1.7076809657082937E9, 0.0, 2024-02-11 14:49:25.708
52.0, 36341.14251627237, 36012.974204179554, -11422.479024228935, 1753.8966839190346, 6041.900043714052, 6347.023707273449, -5927.928498736442, 13654.211301113522, 1393.3406941104763, -187500.02235174447, -2322.525062862046, -35892.34183935426, -187500.02235174447, -4282.616589381289, -6381.087765823337, -187500.02235174447, -0.00134375, 0.9571875, 0.21975, 192.0, 3.984375, 3.75, 0.46875, 1.0, 0.09375, 3.25, 0.0, 0.0, 0.0, 1.7076809657083004E9, 0.0, 2024-02-11 14:49:25.708
52.0, 36719.40108768953, 35683.68830486397, -11686.877809390762, 1539.4540476148186, 5756.155342597407, 6037.899081456552, -6169.752021998408, 19397.849666815957, 1393.3406941104763, -187500.02235174447, -2322.525062862046, -35892.34183935426, -187500.02235174447, -4282.616589381289, -6381.087765823337, -187500.02235174447, -0.00134375, 0.9571875, 0.21975, 192.0, 1.9921875, 1.875, 0.234375, 0.5, 0.046875, 1.625, 0.0, 0.0, 0.0, 1.7076809657083068E9, 0.0, 2024-02-11 14:49:25.708
52.0, 36985.498605429966, 35669.718464579404, -11638.106302989281, 1645.5130750552507, 5824.596384119557, 6018.587174247167, -6177.485725579944, 16759.98619317844, 1393.3406941104763, -187500.02235174447, -2322.525062862046, -35892.34183935426, -187500.02235174447, -4282.616589381289, -6381.087765823337, -187500.02235174447, -0.00134375, 0.9571875, 0.21975, 192.0, 0.99609375, 0.9375, 0.1171875, 0.25, 0.0234375, 0.8125, 0.0, 0.0, 0.0, 1.7076809657083144E9, 0.0, 2024-02-11 14:49:25.708
86.0, 36732.834486107175, 35684.336505453175, -11691.236399559546, 1526.0206491971792, 5742.856054646499, 6033.160511632027, -6178.60331280271, 19411.55128616706, 1227.4013432742768, -187500.02235174447, -2443.582110831989, -36032.554332322405, -187500.02235174447, -4413.329590955924, -6492.511211933042, -187500.02235174447, -0.00134375, 0.9571875, 0.21975, 192.0, 0.0, 0.0, 0.0, 0.0, 0.0, 0.0, 0.0, 0.0, 0.0, 1.7076809657083232E9, 0.0, 2024-02-11 14:49:25.708
88.0, 36175.89606951429, 36059.42112915768, -11370.801791048265, 1810.044265990766, 6090.626846626622, 6403.55126900092, -5787.470136579292, 13382.07881237016, 1275.7481665311059, -187500.02235174447, -2423.6667065223105, -35999.11612261726, -187500.02235174447, -4393.704759324165, -6514.997066855081, -187500.02235174447, -0.00134375, 0.9571875, 0.21975, 192.0, 0.0, 0.0, 0.0, 0.0, 0.0, 0.0, 0.0, 0.0, 0.0, 1.7076809657083318E9, 0.0, 2024-02-11 14:49:25.708
88.0, 36210.45186644219, 35936.37477593122, -11464.343841593723, 1692.496441900306, 5954.281205449249, 6271.7430319479745, -5925.447455101902, 17256.194920086255, 1275.7481665311059, -187500.02235174447, -2423.6667065223105, -35999.11612261726, -187500.02235174447, -4393.704759324165, -6514.997066855081, -187500.02235174447, -0.00134375, 0.9571875, 0.21975, 192.0, 0.0, 0.0, 0.0, 0.0, 0.0, 0.0, 0.0, 0.0, 0.0, 1.7076809657083392E9, 0.0, 2024-02-11 14:49:25.708
132.0, 36973.04868376836, 35602.50676900229, -11777.42472617921, 1463.0334333221238, 5670.972844478231, 5932.175330182949, -6252.252310782947, 19762.58543283766, 1074.6495216667083, -187500.02235174447, -2636.8799968814847, -36232.73655566413, -187500.02235174447, -4590.3777587864115, -6645.59830970744, -187500.02235174447, -0.00134375, 0.9571875, 0.21975, 192.0, 0.0, 0.0, 0.0, 0.0, 0.0, 0.0, 0.0, 0.0, 0.0, 1.7076809657083478E9, 0.0, 2024-02-11 14:49:25.708
130.0, 36276.99300968564, 35907.0269354614, -11497.357368154213, 1673.13983120201, 5931.08009470464, 6244.608014179232, -5943.954699510897, 17592.29810146071, 1026.436808876611, -187500.02235174447, -2664.5291047726996, -36265.10188163542, -187500.02235174447, -4614.696456753785, -6656.930644146281, -187500.02235174447, -0.00134375, 0.9571875, 0.21975, 192.0, 0.0, 0.0, 0.0, 0.0, 0.0, 0.0, 0.0, 0.0, 0.0, 1.7076809657083695E9, 0.0, 2024-02-11 14:49:25.708
130.0, 36166.4859850986, 36053.92260002167, -11388.862000568153, 1781.0093499433221, 6072.745451062376, 6389.73789092754, -5832.665363867923, 13374.054536110705, 1026.436808876611, -187500.02235174447, -2664.5291047726996, -36265.10188163542, -187500.02235174447, -4614.696456753785, -6656.930644146281, -187500.02235174447, -0.00134375, 0.9571875, 0.21975, 192.0, 0.0, 0.0, 0.0, 0.0, 0.0, 0.0, 0.0, 0.0, 0.0, 1.707680965708377E9, 0.0, 2024-02-11 14:49:25.708
130.0, 36279.98814344265, 35882.70823749402, -11512.623609617187, 1645.0883919105997, 5907.566059537657, 6229.162958760615, -5973.973092314374, 17823.81747052878, 1026.436808876611, -187500.02235174447, -2664.5291047726996, -36265.10188163542, -187500.02235174447, -4614.696456753785, -6656.930644146281, -187500.02235174447, -0.00134375, 0.9571875, 0.21975, 192.0, 0.0, 0.0, 0.0, 0.0, 0.0, 0.0, 0.0, 0.0, 0.0, 1.7076809657083836E9, 0.0, 2024-02-11 14:49:25.708
130.0, 37263.509602965074, 35516.92193948292, -11841.618936254852, 1436.9936510316911, 5624.347105544461, 5854.860646112043, -6319.173433682136, 19764.753552049824, 1026.436808876611, -187500.02235174447, -2664.5291047726996, -36265.10188163542, -187500.02235174447, -4614.696456753785, -6656.930644146281, -187500.02235174447, -0.00134375, 0.9571875, 0.21975, 192.0, 0.0, 0.0, 0.0, 0.0, 0.0, 0.0, 0.0, 0.0, 0.0, 1.7076809657083902E9, 0.0, 2024-02-11 14:49:25.708
172.0, 36243.68891044723, 35942.34269170078, -11446.395390796113, 1721.687820158937, 5974.442478947935, 6272.145363348171, -5912.639905529011, 17093.742441385086, 803.2546404903699, -187500.02235174447, -2918.154349107069, -36509.20528283183, -187500.02235174447, -4899.278867158755, -6986.775337073248, -187500.02235174447, -0.001671875, 0.96159375, 0.218875, 192.0, 127.5, 120.0, 15.0, 24.0, 3.0, 104.0, 0.0, 0.0, 0.0, 1.7076809657083995E9, 0.0, 2024-02-11 14:49:25.708
174.0, 36205.19920649519, 35987.60497422278, -11411.392558979102, 1739.4798087453614, 6007.880688653075, 6312.579669067821, -5872.339710276093, 16818.033673528873, 805.7803876138196, -187500.02235174447, -2880.2010870219574, -36476.72819813826, -187500.02235174447, -4866.757078976283, -6946.2516243757755, -187500.02235174447, -0.001671875, 0.96159375, 0.218875, 192.0, 0.0, 0.0, 0.0, 0.0, 0.0, 0.0, 0.0, 0.0, 0.0, 1.7076809657084088E9, 0.0, 2024-02-11 14:49:25.708
176.0, 36245.566456981476, 36000.99366915151, -11380.68126209751, 1783.0880621776655, 6034.635726766077, 6326.527157607932, -5861.54381770418, 16672.501465380366, 884.5255833298664, -187500.02235174447, -2821.639516549053, -36407.907176960376, -187500.02235174447, -4821.450092965376, -6924.101045620567, -187500.02235174447, -0.001671875, 0.96159375, 0.218875, 192.0, 0.0, 0.0, 0.0, 0.0, 0.0, 0.0, 0.0, 0.0, 0.0, 1.7076809657084172E9, 0.0, 2024-02-11 14:49:25.708
178.0, 36192.7939883225, 36060.38225416926, -11356.027287963307, 1790.3747308700956, 6062.82127652422, 6370.805963373896, -5792.186354659361, 16384.588645051557, 911.3253249317795, -187500.02235174447, -2786.9943126433272, -36378.738150446196, -187500.02235174447, -4786.201391959356, -6885.656045157439, -187500.02235174447, -0.001671875, 0.96159375, 0.218875, 192.0, 0.0, 0.0, 0.0, 0.0, 0.0, 0.0, 0.0, 0.0, 0.0, 1.7076809657084258E9, 0.0, 2024-02-11 14:49:25.708
180.0, 36213.402296710294, 36069.85939381831, -11333.966116185919, 1819.0296672617994, 6078.467497642934, 6378.718480911074, -5795.7179302833, 16210.915590633822, 987.5894770132873, -187500.02235174447, -2722.420122911945, -36307.570196100496, -187500.02235174447, -4734.099475634036, -6868.065222271111, -187500.02235174447, -0.001671875, 0.96159375, 0.218875, 192.0, 0.0, 0.0, 0.0, 0.0, 0.0, 0.0, 0.0, 0.0, 0.0, 1.7076809657084343E9, 0.0, 2024-02-11 14:49:25.708
182.0, 36170.77752003402, 36102.6717546787, -11324.913659681519, 1819.4767021509056, 6096.304189718269, 6409.496833026032, -5791.269933136694, 15963.68294521367, 1018.4795878505216, -187500.02235174447, -2694.39103536499, -36289.86761449189, -187500.02235174447, -4702.538812463143, -6809.928334942858, -187500.02235174447, -0.0018359375, 0.964796875, 0.2234375, 192.0, 127.5, 120.0, 15.0, 32.0, 3.5, 16.0, 0.0, 0.0, 0.0, 1.7076809657084427E9, 0.0, 2024-02-11 14:49:25.708
184.0, 36189.24006095411, 36103.74463841256, -11294.671749433488, 1853.205484533964, 6112.3750939816355, 6416.112949384803, -5778.216514374794, 15793.228541997498, 1082.78555664844, -187500.02235174447, -2642.5349882286773, -36226.053384071995, -187500.02235174447, -4655.086058984525, -6793.611561490484, -187500.02235174447, -0.0018359375, 0.964796875, 0.2234375, 192.0, 0.0, 0.0, 0.0, 0.0, 0.0, 0.0, 0.0, 0.0, 0.0, 1.7076809657084513E9, 0.0, 2024-02-11 14:49:25.708
186.0, 36177.952430004174, 36127.549246257455, -11297.309255279215, 1845.6505949080702, 6119.371189996146, 6433.726124015585, -5778.820011475088, 15610.972417708925, 1120.5823565223643, -187500.02235174447, -2611.8907465804514, -36212.46352344317, -187500.02235174447, -4630.968526717249, -6727.942136280792, -187500.02235174447, -0.0018359375, 0.964796875, 0.2234375, 192.0, 0.0, 0.0, 0.0, 0.0, 0.0, 0.0, 0.0, 0.0, 0.0, 1.7076809657672884E9, 0.0, 2024-02-11 14:49:25.767
188.0, 36180.1429009608, 36135.037080649985, -11269.168409009982, 1874.1267173441313, 6130.859986646175, 6447.293632899957, -5765.543075268635, 15422.748377650783, 1135.0662869294033, -187500.02235174447, -2575.8597345184967, -36165.27899089801, -187500.02235174447, -4588.835488418995, -6737.642793374395, -187500.02235174447, -0.0018359375, 0.964796875, 0.2234375, 192.0, 0.0, 0.0, 0.0, 0.0, 0.0, 0.0, 0.0, 0.0, 0.0, 1.7076809658954337E9, 0.0, 2024-02-11 14:49:25.895
190.0, 36158.2828948835, 36148.29166511198, -11279.070231803684, 1861.2744642823297, 6127.998963355895, 6447.919481744705, -5733.177749297351, 15250.617593600464, 1167.9009995342494, -187500.02235174447, -2541.4380480573236, -36145.14006914378, -187500.02235174447, -4558.682985148786, -6672.196885609256, -187500.02235174447, -0.0018359375, 0.964796875, 0.2234375, 192.0, 0.0, 0.0, 0.0, 0.0, 0.0, 0.0, 0.0, 0.0, 0.0, 1.7076809659174523E9, 0.0, 2024-02-11 14:49:25.917
190.0, 36005.3969628092, 36282.9162219663, -11122.831538061087, 1956.582302639759, 6243.937461845572, 6572.306939638489, -5611.718369927213, 11315.257706076825, 1167.9009995342494, -187500.02235174447, -2541.4380480573236, -36145.14006914378, -187500.02235174447, -4558.682985148786, -6672.196885609256, -187500.02235174447, -0.0018359375, 0.964796875, 0.2234375, 192.0, 0.0, 0.0, 0.0, 0.0, 0.0, 0.0, 0.0, 0.0, 0.0, 1.707680965917477E9, 0.0, 2024-02-11 14:49:25.917
248.0, 36011.09665764531, 36269.77339622658, -11142.881052837498, 1933.1800261950525, 6226.570156403799, 6560.616977288363, -5620.413198520327, 11190.289102827204, 1612.7454176837705, -187500.02235174447, -2074.1301267302188, -35707.87289236461, -187500.02235174447, -4119.404151368636, -6399.304437554412, -187500.02235174447, -0.0018359375, 0.964796875, 0.2234375, 192.0, 0.0, 0.0, 0.0, 0.0, 0.0, 0.0, 0.0, 0.0, 0.0, 1.707680965933489E9, 0.0, 2024-02-11 14:49:25.933
250.0, 35980.675933441635, 36272.477957305666, -11140.645878391968, 1934.6105378401921, 6235.734371630475, 6562.427468589243, -5604.610515190425, 10987.715242828757, 1653.7385170148036, -187500.02235174447, -2073.8172023078446, -35704.09544755166, -187500.02235174447, -4117.414846112114, -6422.662010510208, -187500.02235174447, -0.0018359375, 0.964796875, 0.2234375, 192.0, 0.0, 0.0, 0.0, 0.0, 0.0, 0.0, 0.0, 0.0, 0.0, 1.7076809660676532E9, 0.0, 2024-02-11 14:49:26.067
252.0, 35987.96260213407, 36276.456567818714, -11155.621547177023, 1923.5687760792705, 6229.609993649721, 6555.565483041463, -5634.539501016081, 10877.029404286075, 1634.0689818941335, -187500.02235174447, -2054.393536376183, -35681.00609552933, -187500.02235174447, -4103.936744205564, -6388.173268815669, -187500.02235174447, -0.006, 0.966, 0.234, 192.0, 127.5, 104.0, 15.0, 24.0, 3.5, 40.0, 0.0, 0.0, 0.0, 1.7076809660676785E9, 0.0, 2024-02-11 14:49:26.067
254.0, 35957.85480235276, 36276.03188467406, -11151.151198285961, 1927.1227034476644, 6234.61678440771, 6561.511047066575, -5644.038992409586, 10685.139678137264, 1641.3109470976528, -187500.02235174447, -2054.505295098459, -35679.66499086202, -187500.02235174447, -4097.566497035801, -6397.896277653727, -187500.02235174447, -0.006, 0.966, 0.234, 192.0, 0.0, 0.0, 0.0, 0.0, 0.0, 0.0, 0.0, 0.0, 0.0, 1.7076809660936604E9, 0.0, 2024-02-11 14:49:26.093
0.0, 35963.37568323323, 36274.579021284466, -11152.939337842387, 1923.9711074794661, 6238.528339687388, 6562.338061611422, -5648.665803511835, 10571.861037237768, 1663.9085607419684, -187500.02235174447, -2031.7512192429567, -35647.210257912906, -187500.02235174447, -4077.1146508591955, -6360.658271391186, -187500.02235174447, -0.006, 0.966, 0.234, 192.0, 0.0, 0.0, 0.0, 0.0, 0.0, 0.0, 0.0, 0.0, 0.0, 1.707680966203838E9, 0.0, 2024-02-11 14:49:26.203
2.0, 35913.39718263116, 36291.58869881496, -11144.088047038085, 1929.6260988266588, 6246.753781646941, 6572.664567549774, -5618.513300241626, 10345.750790327882, 1693.6363808675267, -187500.02235174447, -2012.4393120335715, -35623.11507739009, -187500.02235174447, -4045.866912110676, -6351.359945697778, -187500.02235174447, -0.006, 0.966, 0.234, 192.0, 0.0, 0.0, 0.0, 0.0, 0.0, 0.0, 0.0, 0.0, 0.0, 1.7076809662038667E9, 0.0, 2024-02-11 14:49:26.203
4.0, 35566.56516391816, 36357.74986240266, -11056.08922911754, 1962.3714044536835, 6297.559296793855, 6636.9034811143265, -5547.948842996221, 6996.230124977842, 1747.3923262825401, -187500.02235174447, -1977.6376459166584, -35588.60398395109, -187500.02235174447, -4005.8349377912214, -6316.491224347499, -187500.02235174447, -0.006, 0.966, 0.234, 192.0, 0.0, 0.0, 0.0, 0.0, 0.0, 0.0, 0.0, 0.0, 0.0, 1.7076809662038772E9, 0.0, 2024-02-11 14:49:26.203
66.0, 35885.41279857312, 36265.8618409469, -11152.916986097931, 1907.0508369267986, 6218.478824910978, 6551.631576017329, -5639.412181307338, 9992.369710489478, 1886.7554529613797, -187500.02235174447, -1830.5631674007377, -35447.25155201573, -187500.02235174447, -3902.0334365407753, -6220.8481098232405, -187500.02235174447, -0.006, 0.966, 0.234, 192.0, 0.0, 0.0, 0.0, 0.0, 0.0, 0.0, 0.0, 0.0, 0.0, 1.7076809662198324E9, 0.0, 2024-02-11 14:49:26.219
66.0, 36123.66004272223, 36335.62163539191, -11098.33402613807, 1964.450116688027, 6285.914037932639, 6602.101814997413, -5610.600782704447, 8525.40237014322, 1886.7554529613797, -187500.02235174447, -1830.5631674007377, -35447.25155201573, -187500.02235174447, -3902.0334365407753, -6220.8481098232405, -187500.02235174447, -0.006, 0.966, 0.234, 192.0, 0.0, 0.0, 0.0, 0.0, 0.0, 0.0, 0.0, 0.0, 0.0, 1.7076809663961084E9, 0.0, 2024-02-11 14:49:26.396
66.0, 35515.44672434887, 36417.741944520705, -11038.632516697946, 1965.0089102994098, 6330.528119865432, 6691.307627118544, -5513.393046068317, 7125.914946307534, 1886.7554529613797, -187500.02235174447, -1830.5631674007377, -35447.25155201573, -187500.02235174447, -3902.0334365407753, -6220.8481098232405, -187500.02235174447, -0.005, 0.966, 0.233, 192.0, 127.5, 112.0, 15.0, 24.0, 3.5, 32.0, 0.0, 0.0, 0.0, 1.7076809665342517E9, 0.0, 2024-02-11 14:49:26.534
10.0, 36111.85832164983, 36335.28635922508, -11096.747052281744, 1959.6891951190466, 6279.789659951885, 6603.822899320472, -5600.900125610844, 8486.666797002174, 1718.9832590798449, -187500.02235174447, -1981.8844773631665, -35621.93043493396, -187500.02235174447, -3995.351969641682, -6329.924622765139, -187500.02235174447, -0.005, 0.966, 0.233, 192.0, 0.0, 0.0, 0.0, 0.0, 0.0, 0.0, 0.0, 0.0, 0.0, 1.7076809666625495E9, 0.0, 2024-02-11 14:49:26.662
98.0, 36148.89516221228, 36304.73152455468, -11116.126014724496, 1952.5366368933485, 6264.948101633561, 6581.627617076352, -5616.345181029461, 8487.985549925035, 1714.5576136776942, -187500.02235174447, -1961.1420585086416, -35636.25790312981, -187500.02235174447, -4000.425815633037, -6181.84431574873, -187500.02235174447, -0.005, 0.966, 0.233, 192.0, 0.0, 0.0, 0.0, 0.0, 0.0, 0.0, 0.0, 0.0, 0.0, 1.707680967319194E9, 0.0, 2024-02-11 14:49:27.319
98.0, 36318.27668169459, 36319.99776601765, -11080.318520107094, 1986.354826254228, 6285.042319898882, 6575.927922240248, -5561.382241413861, 11684.575579711865, 1714.5576136776942, -187500.02235174447, -1961.1420585086416, -35636.25790312981, -187500.02235174447, -4000.425815633037, -6181.84431574873, -187500.02235174447, -0.0055, 0.963, 0.23450000000000001, 192.0, 127.5, 104.0, 15.0, 0.0, 3.5, 48.0, 0.0, 0.0, 0.0, 1.7076809673351939E9, 0.0, 2024-02-11 14:49:27.335
254.0, 36588.330458203614, 36346.95396983075, -11089.438031844858, 1947.9545292800105, 6279.454383785055, 6570.0494134485025, -5616.613401962924, 11971.46021979573, 1734.9200528764788, -187500.02235174447, -1947.1051629907088, -35644.79626951173, -187500.02235174447, -4029.773656102855, -6146.103876364694, -187500.02235174447, -0.0055, 0.963, 0.23450000000000001, 192.0, 0.0, 0.0, 0.0, 0.0, 0.0, 0.0, 0.0, 0.0, 0.0, 1.7076809678799157E9, 0.0, 2024-02-11 14:49:27.879
254.0, 36351.334911743994, 36277.52945155257, -11152.179378530906, 1846.879940853112, 6208.889926539651, 6517.679276189719, -5675.085565458008, 11949.711972440717, 1734.9200528764788, -187500.02235174447, -1947.1051629907088, -35644.79626951173, -187500.02235174447, -4029.773656102855, -6146.103876364694, -187500.02235174447, -0.0055, 0.963, 0.23450000000000001, 192.0, 0.0, 0.0, 0.0, 0.0, 0.0, 0.0, 0.0, 0.0, 0.0, 1.7076809679600215E9, 0.0, 2024-02-11 14:49:27.960
254.0, 36389.846967440484, 36336.40394644785, -11134.29798296666, 1851.8420281221902, 6234.415618707611, 6537.751142710584, -5674.459716613259, 11855.052334672491, 1734.9200528764788, -187500.02235174447, -1947.1051629907088, -35644.79626951173, -187500.02235174447, -4029.773656102855, -6146.103876364694, -187500.02235174447, -0.0055, 0.963, 0.23450000000000001, 192.0, 0.0, 0.0, 0.0, 0.0, 0.0, 0.0, 0.0, 0.0, 0.0, 1.7076809686328404E9, 0.0, 2024-02-11 14:49:28.632
254.0, 36385.0860458715, 36265.23599210215, -11156.716782655332, 1846.0976297971763, 6201.5362026138555, 6498.993217825082, -5693.704568589279, 11976.154086131346, 1734.9200528764788, -187500.02235174447, -1947.1051629907088, -35644.79626951173, -187500.02235174447, -4029.773656102855, -6146.103876364694, -187500.02235174447, -0.0055, 0.963, 0.23450000000000001, 192.0, 0.0, 0.0, 0.0, 0.0, 0.0, 0.0, 0.0, 0.0, 0.0, 1.707680968648956E9, 0.0, 2024-02-11 14:49:28.648
254.0, 36431.35415689399, 36347.04337680857, -11089.90741847842, 1896.746682732902, 6278.739127962485, 6579.101869952902, -5615.831090906989, 12000.070452698525, 1734.9200528764788, -187500.02235174447, -1947.1051629907088, -35644.79626951173, -187500.02235174447, -4029.773656102855, -6146.103876364694, -187500.02235174447, -0.0055, 0.963, 0.23450000000000001, 192.0, 0.0, 0.0, 0.0, 0.0, 0.0, 0.0, 0.0, 0.0, 0.0, 1.7076809686649163E9, 0.0, 2024-02-11 14:49:28.664
254.0, 36343.578856418, 36302.16107394231, -11136.577860901101, 1831.0102022898438, 6257.549674218854, 6560.594625543908, -5676.180800936318, 12050.563043423062, 1734.9200528764788, -187500.02235174447, -1947.1051629907088, -35644.79626951173, -187500.02235174447, -4029.773656102855, -6146.103876364694, -187500.02235174447, -0.0055, 0.963, 0.23450000000000001, 192.0, 0.0, 0.0, 0.0, 0.0, 0.0, 0.0, 0.0, 0.0, 0.0, 1.70768096874798E9, 0.0, 2024-02-11 14:49:28.747
254.0, 36358.82274613652, 36314.90156828184, -11149.251300007261, 1816.0121817603329, 6251.38059274919, 6574.184486172734, -5665.317853131039, 12109.549297040618, 1734.9200528764788, -187500.02235174447, -1947.1051629907088, -35644.79626951173, -187500.02235174447, -4029.773656102855, -6146.103876364694, -187500.02235174447, -0.0055, 0.963, 0.23450000000000001, 192.0, 0.0, 0.0, 0.0, 0.0, 0.0, 0.0, 0.0, 0.0, 0.0, 1.7076809687480044E9, 0.0, 2024-02-11 14:49:28.748
254.0, 36321.29416719606, 36314.499236881646, -11130.945221298363, 1830.5184639118272, 6259.918959131117, 6569.602378559396, -5671.889266000899, 12018.845918040983, 1734.9200528764788, -187500.02235174447, -1947.1051629907088, -35644.79626951173, -187500.02235174447, -4029.773656102855, -6146.103876364694, -187500.02235174447, -0.00775, 0.9635, 0.24025000000000002, 192.0, 127.5, 88.0, 15.0, 16.0, 3.5, 88.0, 0.0, 0.0, 0.0, 1.7076809687480133E9, 0.0, 2024-02-11 14:49:28.748
254.0, 36357.548696702564, 36289.33117262497, -11143.372791215515, 1835.6817168810032, 6245.18915953507, 6554.649061518796, -5656.801838493567, 12097.434651545842, 1734.9200528764788, -187500.02235174447, -1947.1051629907088, -35644.79626951173, -187500.02235174447, -4029.773656102855, -6146.103876364694, -187500.02235174447, -0.00775, 0.9635, 0.24025000000000002, 192.0, 63.75, 44.0, 7.5, 8.0, 1.75, 44.0, 0.0, 0.0, 0.0, 1.7076809687480211E9, 0.0, 2024-02-11 14:49:28.748
254.0, 36350.5302489436, 36310.61003334642, -11134.990887044774, 1825.4446179204724, 6257.750839918953, 6569.334157625933, -5688.429556897826, 12083.710680450284, 1734.9200528764788, -187500.02235174447, -1947.1051629907088, -35644.79626951173, -187500.02235174447, -4029.773656102855, -6146.103876364694, -187500.02235174447, -0.00775, 0.9635, 0.24025000000000002, 192.0, 31.875, 22.0, 3.75, 4.0, 0.875, 22.0, 0.0, 0.0, 0.0, 1.707680968780018E9, 0.0, 2024-02-11 14:49:28.780
254.0, 36378.22406032372, 36307.52549261159, -11144.043343549174, 1821.3989521740618, 6241.277604255391, 6555.453724319187, -5688.675426086835, 12125.821367004082, 1734.9200528764788, -187500.02235174447, -1947.1051629907088, -35644.79626951173, -187500.02235174447, -4029.773656102855, -6146.103876364694, -187500.02235174447, -0.008875000000000001, 0.96175, 0.23912500000000003, 192.0, 143.4375, 99.0, 16.875, 2.0, 3.9375, 67.0, 0.0, 0.0, 0.0, 1.7076809688761773E9, 0.0, 2024-02-11 14:49:28.876
254.0, 36342.77419361761, 36304.508007110126, -11135.63908763398, 1821.5107108963384, 6254.845113139762, 6563.969738956659, -5680.785260294111, 12060.710735405772, 1734.9200528764788, -187500.02235174447, -1947.1051629907088, -35644.79626951173, -187500.02235174447, -4029.773656102855, -6146.103876364694, -187500.02235174447, -0.008875000000000001, 0.96175, 0.23912500000000003, 192.0, 71.71875, 49.5, 8.4375, 1.0, 1.96875, 33.5, 0.0, 0.0, 0.0, 1.7076809689102128E9, 0.0, 2024-02-11 14:49:28.910
254.0, 36348.898571598365, 36272.053274161015, -11150.30183199666, 1836.4863796813943, 6235.846130352751, 6535.739485709606, -5677.231332925718, 12118.758215756205, 1734.9200528764788, -187500.02235174447, -1947.1051629907088, -35644.79626951173, -187500.02235174447, -4029.773656102855, -6146.103876364694, -187500.02235174447, -0.008875000000000001, 0.96175, 0.23912500000000003, 192.0, 35.859375, 24.75, 4.21875, 0.5, 0.984375, 16.75, 0.0, 0.0, 0.0, 1.7076809689102516E9, 0.0, 2024-02-11 14:49:28.910
254.0, 36308.59837634544, 36301.4681698642, -11158.147294300474, 1794.8003762722465, 6242.842226367263, 6557.06304991997, -5726.829853872044, 12092.070232876567, 1734.9200528764788, -187500.02235174447, -1947.1051629907088, -35644.79626951173, -187500.02235174447, -4029.773656102855, -6146.103876364694, -187500.02235174447, -0.008875000000000001, 0.96175, 0.23912500000000003, 192.0, 17.9296875, 12.375, 2.109375, 0.25, 0.4921875, 8.375, 0.0, 0.0, 0.0, 1.7076809689102612E9, 0.0, 2024-02-11 14:49:28.910
230.0, 36324.24459746416, 36289.13000692487, -11173.100611341073, 1785.2114779009198, 6235.220281508003, 6548.614090515864, -5732.440141730326, 12117.193593644333, 1649.983423946312, -187500.02235174447, -1996.614276959214, -35827.74529787842, -187500.02235174447, -4226.714876498566, -6341.413419415167, -187500.02235174447, -0.0054375000000000005, 0.959875, 0.24356250000000002, 192.0, 127.5, 120.0, 14.5, 120.0, 3.5, 96.0, 0.0, 0.0, 0.0, 1.7076809689102721E9, 0.0, 2024-02-11 14:49:28.910
232.0, 36310.006536246125, 36295.74612328364, -11178.77795443272, 1767.6653585035037, 6225.676086625587, 6550.7375062391175, -5727.031019572141, 12103.134346381945, 1657.0242234497339, -187500.02235174447, -1993.7309019244794, -35825.264254243884, -187500.02235174447, -4222.602155518789, -6320.782759282918, -187500.02235174447, -0.0054375000000000005, 0.959875, 0.24356250000000002, 192.0, 0.0, 0.0, 0.0, 0.0, 0.0, 0.0, 0.0, 0.0, 0.0, 1.7076809689352388E9, 0.0, 2024-02-11 14:49:28.935
234.0, 36318.14257122786, 36269.03578865955, -11183.091841112595, 1770.884009705068, 6211.303914940824, 6531.693819963196, -5742.319612779572, 12127.453044349319, 1660.466392095851, -187500.02235174447, -2001.4869572504708, -35836.864809616185, -187500.02235174447, -4215.896632182197, -6348.185997985125, -187500.02235174447, -0.0054375000000000005, 0.959875, 0.24356250000000002, 192.0, 0.0, 0.0, 0.0, 0.0, 0.0, 0.0, 0.0, 0.0, 0.0, 1.7076809689352672E9, 0.0, 2024-02-11 14:49:28.935
236.0, 36293.75681802712, 36278.53528005305, -11193.530105773223, 1759.9540066664229, 6205.917144527095, 6535.963003154159, -5742.90075813541, 12123.899116980925, 1647.2565111227646, -187500.02235174447, -2013.5121957674262, -35852.64514120163, -187500.02235174447, -4218.489434539012, -6327.018895985949, -187500.02235174447, -0.0054375000000000005, 0.959875, 0.24356250000000002, 192.0, 0.0, 0.0, 0.0, 0.0, 0.0, 0.0, 0.0, 0.0, 0.0, 1.7076809690153317E9, 0.0, 2024-02-11 14:49:29.015
238.0, 36299.34475414095, 36269.952210182215, -11186.623416736535, 1770.012291671311, 6206.498289882933, 6532.476131019132, -5733.691839419823, 12132.839814763049, 1635.3877348169965, -187500.02235174447, -2019.7259807260016, -35855.752033680925, -187500.02235174447, -4204.161966343161, -6350.823503830851, -187500.02235174447, -0.0054375000000000005, 0.959875, 0.24356250000000002, 192.0, 0.0, 0.0, 0.0, 0.0, 0.0, 0.0, 0.0, 0.0, 0.0, 1.7076809691754928E9, 0.0, 2024-02-11 14:49:29.175
240.0, 36282.37978009937, 36317.69553633875, -11186.042271380697, 1776.9189807080008, 6235.913185586118, 6567.68012853624, -5732.529548708147, 12045.220976498244, 1624.8377114340917, -187500.02235174447, -2026.1409313846746, -35865.83267043027, -187500.02235174447, -4196.182393572616, -6331.623355343742, -187500.02235174447, -0.0054375000000000005, 0.959875, 0.24356250000000002, 192.0, 0.0, 0.0, 0.0, 0.0, 0.0, 0.0, 0.0, 0.0, 0.0, 1.7076809692556489E9, 0.0, 2024-02-11 14:49:29.255
242.0, 36293.64505930484, 36271.02509391607, -11172.340652029592, 1779.6905970204589, 6214.723731842486, 6531.984392641115, -5703.5393361496135, 12134.583250830561, 1653.0456129366892, -187500.02235174447, -2017.803730702845, -35861.25056281693, -187500.02235174447, -4191.1085475812615, -6350.801152086396, -187500.02235174447, -0.0054375000000000005, 0.959875, 0.24356250000000002, 192.0, 0.0, 0.0, 0.0, 0.0, 0.0, 0.0, 0.0, 0.0, 0.0, 1.707680969373803E9, 0.0, 2024-02-11 14:49:29.373
242.0, 36287.90066097983, 36315.32625142649, -11181.34840504508, 1778.975341197889, 6235.510854185922, 6564.327366867944, -5742.699592435311, 12048.596089910996, 1653.0456129366892, -187500.02235174447, -2017.803730702845, -35861.25056281693, -187500.02235174447, -4191.1085475812615, -6350.801152086396, -187500.02235174447, -0.0037187500000000003, 0.9609375, 0.24278125, 192.0, 127.5, 120.0, 15.0, 8.0, 3.5, 72.0, 0.0, 0.0, 0.0, 1.7076809693738296E9, 0.0, 2024-02-11 14:49:29.373
246.0, 36298.964774485205, 36303.50217860963, -11162.796457147177, 1784.3174081227075, 6235.846130352751, 6562.718041267162, -5728.997973084209, 12126.000180959723, 1655.1913804043986, -187500.02235174447, -2015.3450388127612, -35847.75010916592, -187500.02235174447, -4225.083199153328, -6344.900291550194, -187500.02235174447, -0.0037187500000000003, 0.9609375, 0.24278125, 192.0, 0.0, 0.0, 0.0, 0.0, 0.0, 0.0, 0.0, 0.0, 0.0, 1.7076809694058373E9, 0.0, 2024-02-11 14:49:29.405
246.0, 36283.94440221124, 36316.443838649255, -11193.26188483976, 1763.6196927570932, 6228.0677232823045, 6556.660718519774, -5750.723868694767, 12046.651488143383, 1655.1913804043986, -187500.02235174447, -2015.3450388127612, -35847.75010916592, -187500.02235174447, -4225.083199153328, -6344.900291550194, -187500.02235174447, -0.0037187500000000003, 0.9609375, 0.24278125, 192.0, 0.0, 0.0, 0.0, 0.0, 0.0, 0.0, 0.0, 0.0, 0.0, 1.707680969437823E9, 0.0, 2024-02-11 14:49:29.437
246.0, 36179.40529339377, 36279.92108820928, -11170.954843873364, 1770.5487335382384, 6212.488557396956, 6535.739485709606, -5706.802690840089, 11785.918389072227, 1655.1913804043986, -187500.02235174447, -2015.3450388127612, -35847.75010916592, -187500.02235174447, -4225.083199153328, -6344.900291550194, -187500.02235174447, -0.0037187500000000003, 0.9609375, 0.24278125, 192.0, 0.0, 0.0, 0.0, 0.0, 0.0, 0.0, 0.0, 0.0, 0.0, 1.7076809694627764E9, 0.0, 2024-02-11 14:49:29.462
246.0, 36302.02696347558, 36311.01236474662, -11188.031576637219, 1773.722681250892, 6232.783941362374, 6558.404154587288, -5767.442973547337, 12070.880779132936, 1655.1913804043986, -187500.02235174447, -2015.3450388127612, -35847.75010916592, -187500.02235174447, -4225.083199153328, -6344.900291550194, -187500.02235174447, -0.0037187500000000003, 0.9609375, 0.24278125, 192.0, 0.0, 0.0, 0.0, 0.0, 0.0, 0.0, 0.0, 0.0, 0.0, 1.7076809694628E9, 0.0, 2024-02-11 14:49:29.462
246.0, 36175.47138636964, 36286.42544584578, -11170.396050261981, 1775.5778760406824, 6206.542993371844, 6537.147645610291, -5711.675371131346, 11814.886249886305, 1655.1913804043986, -187500.02235174447, -2015.3450388127612, -35847.75010916592, -187500.02235174447, -4225.083199153328, -6344.900291550194, -187500.02235174447, -0.0037187500000000003, 0.9609375, 0.24278125, 192.0, 0.0, 0.0, 0.0, 0.0, 0.0, 0.0, 0.0, 0.0, 0.0, 1.7076809694628072E9, 0.0, 2024-02-11 14:49:29.462
246.0, 36286.09016967895, 36323.46228640822, -11188.07628012613, 1766.9724544253893, 6230.66052563912, 6564.550884312497, -5770.751031726722, 12058.609671426973, 1655.1913804043986, -187500.02235174447, -2015.3450388127612, -35847.75010916592, -187500.02235174447, -4225.083199153328, -6344.900291550194, -187500.02235174447, -0.0037187500000000003, 0.9609375, 0.24278125, 192.0, 0.0, 0.0, 0.0, 0.0, 0.0, 0.0, 0.0, 0.0, 0.0, 1.70768096963105E9, 0.0, 2024-02-11 14:49:29.631
246.0, 36214.36342172187, 36266.264172347095, -11184.388242291003, 1764.044375901744, 6199.859821779707, 6523.066046603447, -5721.778359625145, 11884.377823397854, 1655.1913804043986, -187500.02235174447, -2015.3450388127612, -35847.75010916592, -187500.02235174447, -4225.083199153328, -6344.900291550194, -187500.02235174447, -0.0037187500000000003, 0.9609375, 0.24278125, 192.0, 0.0, 0.0, 0.0, 0.0, 0.0, 0.0, 0.0, 0.0, 0.0, 1.7076809696310723E9, 0.0, 2024-02-11 14:49:29.631
246.0, 36195.789122079506, 36255.15535535281, -11175.11226834205, 1776.1366696520652, 6200.440967135545, 6517.321648278434, -5742.252557546206, 11854.448837572198, 1655.1913804043986, -187500.02235174447, -2015.3450388127612, -35847.75010916592, -187500.02235174447, -4225.083199153328, -6344.900291550194, -187500.02235174447, -0.0037187500000000003, 0.9609375, 0.24278125, 192.0, 0.0, 0.0, 0.0, 0.0, 0.0, 0.0, 0.0, 0.0, 0.0, 1.7076809696630948E9, 0.0, 2024-02-11 14:49:29.663
246.0, 36299.34475414095, 36306.56436760001, -11191.697262727888, 1770.7275474938808, 6220.870461567696, 6549.306994593978, -5773.813220717099, 12085.409413028887, 1655.1913804043986, -187500.02235174447, -2015.3450388127612, -35847.75010916592, -187500.02235174447, -4225.083199153328, -6344.900291550194, -187500.02235174447, -0.0037187500000000003, 0.9609375, 0.24278125, 192.0, 0.0, 0.0, 0.0, 0.0, 0.0, 0.0, 0.0, 0.0, 0.0, 1.7076809696791213E9, 0.0, 2024-02-11 14:49:29.679
246.0, 36266.55474502501, 36328.133800999385, -11149.899500596464, 1789.4359576029728, 6244.920938601606, 6563.2991866229995, -5699.3148564475605, 11938.625507190885, 1655.1913804043986, -187500.02235174447, -2015.3450388127612, -35847.75010916592, -187500.02235174447, -4225.083199153328, -6344.900291550194, -187500.02235174447, -0.0037187500000000003, 0.9609375, 0.24278125, 192.0, 0.0, 0.0, 0.0, 0.0, 0.0, 0.0, 0.0, 0.0, 0.0, 1.707680969769217E9, 0.0, 2024-02-11 14:49:29.769
246.0, 36194.35861043437, 36265.10188163542, -11188.098631870584, 1767.754765481325, 6205.313647426802, 6527.737561194606, -5743.928938380353, 11890.882181034349, 1655.1913804043986, -187500.02235174447, -2015.3450388127612, -35847.75010916592, -187500.02235174447, -4225.083199153328, -6344.900291550194, -187500.02235174447, -0.0037187500000000003, 0.9609375, 0.24278125, 192.0, 0.0, 0.0, 0.0, 0.0, 0.0, 0.0, 0.0, 0.0, 0.0, 1.707680969769247E9, 0.0, 2024-02-11 14:49:29.769
246.0, 36185.574374863434, 36288.30299238003, -11175.514599742246, 1768.0676899036994, 6217.495348154945, 6541.729753223629, -5713.329400221039, 11698.992454885538, 1655.1913804043986, -187500.02235174447, -2015.3450388127612, -35847.75010916592, -187500.02235174447, -4225.083199153328, -6344.900291550194, -187500.02235174447, -0.0037187500000000003, 0.9609375, 0.24278125, 192.0, 0.0, 0.0, 0.0, 0.0, 0.0, 0.0, 0.0, 0.0, 0.0, 1.7076809697692556E9, 0.0, 2024-02-11 14:49:29.769
246.0, 36241.431384257245, 36338.37089995991, -11139.81886384712, 1793.2804576492856, 6253.749877661452, 6574.9220937397595, -5689.748309820689, 11880.130991951346, 1655.1913804043986, -187500.02235174447, -2015.3450388127612, -35847.75010916592, -187500.02235174447, -4225.083199153328, -6344.900291550194, -187500.02235174447, -0.0037187500000000003, 0.9609375, 0.24278125, 192.0, 0.0, 0.0, 0.0, 0.0, 0.0, 0.0, 0.0, 0.0, 0.0, 1.7076809697692628E9, 0.0, 2024-02-11 14:49:29.769
246.0, 36182.13220621731, 36235.12819232085, -11194.871210440542, 1773.3874050840623, 6199.077510723771, 6506.1234243063245, -5731.143740551918, 11932.434073976765, 1655.1913804043986, -187500.02235174447, -2015.3450388127612, -35847.75010916592, -187500.02235174447, -4225.083199153328, -6344.900291550194, -187500.02235174447, -0.0037187500000000003, 0.9609375, 0.24278125, 192.0, 0.0, 0.0, 0.0, 0.0, 0.0, 0.0, 0.0, 0.0, 0.0, 1.70768096976927E9, 0.0, 2024-02-11 14:49:29.769
68.0, 36259.58100075495, 36321.94236778526, -11150.055962807652, 1790.754710525836, 6249.793618892863, 6563.857980234383, -5701.773548337645, 11905.902553308315, 1707.203889751898, -187500.02235174447, -1917.7349707764354, -35775.86689899766, -187500.02235174447, -4125.0144392269185, -6275.6769389721085, -187500.02235174447, -0.006859375, 0.95846875, 0.243390625, 192.0, 127.5, 88.0, 14.5, 112.0, 3.5, 80.0, 0.0, 0.0, 0.0, 1.7076809698062303E9, 0.0, 2024-02-11 14:49:29.806
68.0, 36167.268296154536, 36234.63645394283, -11201.26380935476, 1770.7498992383362, 6195.70239731102, 6506.749273151073, -5716.793920611611, 11950.516635241109, 1707.203889751898, -187500.02235174447, -1917.7349707764354, -35775.86689899766, -187500.02235174447, -4125.0144392269185, -6275.6769389721085, -187500.02235174447, -0.006859375, 0.95846875, 0.243390625, 192.0, 63.75, 44.0, 7.25, 56.0, 1.75, 40.0, 0.0, 0.0, 0.0, 1.7076809698062527E9, 0.0, 2024-02-11 14:49:29.806
68.0, 36459.45029967431, 36238.637416200334, -11198.73806223131, 1759.4175647994955, 6186.582885573254, 6479.748365849062, -5766.146572368929, 12740.606098247303, 1707.203889751898, -187500.02235174447, -1917.7349707764354, -35775.86689899766, -187500.02235174447, -4125.0144392269185, -6275.6769389721085, -187500.02235174447, -0.006859375, 0.95846875, 0.243390625, 192.0, 31.875, 22.0, 3.625, 28.0, 0.875, 20.0, 0.0, 0.0, 0.0, 1.707680969806261E9, 0.0, 2024-02-11 14:49:29.806
68.0, 36225.89692186081, 36320.04246950656, -11133.336857955082, 1805.7974345442576, 6253.168732305615, 6570.541151826519, -5707.22737398474, 11842.602413010885, 1707.203889751898, -187500.02235174447, -1917.7349707764354, -35775.86689899766, -187500.02235174447, -4125.0144392269185, -6275.6769389721085, -187500.02235174447, -0.006859375, 0.95846875, 0.243390625, 192.0, 15.9375, 11.0, 1.8125, 14.0, 0.4375, 10.0, 0.0, 0.0, 0.0, 1.7076809698062725E9, 0.0, 2024-02-11 14:49:29.806
68.0, 36182.6909998287, 36216.86681710086, -11205.264771612261, 1770.9957684273445, 6183.69951053852, 6491.371272965822, -5735.770551654166, 11985.89944671386, 1707.203889751898, -187500.02235174447, -1917.7349707764354, -35775.86689899766, -187500.02235174447, -4125.0144392269185, -6275.6769389721085, -187500.02235174447, -0.006859375, 0.95846875, 0.243390625, 192.0, 7.96875, 5.5, 0.90625, 7.0, 0.21875, 5.0, 0.0, 0.0, 0.0, 1.707680969822372E9, 0.0, 2024-02-11 14:49:29.822
68.0, 36380.68275221381, 36259.60335249941, -11178.107402099062, 1765.5195910357943, 6207.571173616788, 6504.402339983266, -5750.992089628231, 12384.475753840894, 1707.203889751898, -187500.02235174447, -1917.7349707764354, -35775.86689899766, -187500.02235174447, -4125.0144392269185, -6275.6769389721085, -187500.02235174447, -0.006859375, 0.95846875, 0.243390625, 192.0, 3.984375, 2.75, 0.453125, 3.5, 0.109375, 2.5, 0.0, 0.0, 0.0, 1.7076809698382337E9, 0.0, 2024-02-11 14:49:29.838
194.0, 36319.95306252874, 36280.97162019868, -11175.581654975613, 1762.2785880897748, 6216.9142027991065, 6528.117540850347, -5741.358487767993, 12208.500469744262, 1341.328184762977, -187500.02235174447, -2235.2862042529828, -36149.05162442346, -187500.02235174447, -4516.080560216971, -6565.154381412791, -187500.02235174447, -0.006859375, 0.95846875, 0.243390625, 192.0, 0.0, 0.0, 0.0, 0.0, 0.0, 0.0, 0.0, 0.0, 0.0, 1.707680970053624E9, 0.0, 2024-02-11 14:49:30.053
194.0, 36200.7959128375, 36316.28737643807, -11154.883939609997, 1792.364036126618, 6243.199854278548, 6565.891988979815, -5697.973751780242, 11805.744386404085, 1341.328184762977, -187500.02235174447, -2235.2862042529828, -36149.05162442346, -187500.02235174447, -4516.080560216971, -6565.154381412791, -187500.02235174447, -0.006859375, 0.95846875, 0.243390625, 192.0, 0.0, 0.0, 0.0, 0.0, 0.0, 0.0, 0.0, 0.0, 0.0, 1.7076809700536463E9, 0.0, 2024-02-11 14:49:30.053
194.0, 36317.069687494004, 36278.84820447543, -11170.083125839607, 1763.820858457191, 6219.9093365561175, 6527.782264683517, -5735.614089442979, 12152.934033028369, 1341.328184762977, -187500.02235174447, -2235.2862042529828, -36149.05162442346, -187500.02235174447, -4516.080560216971, -6565.154381412791, -187500.02235174447, -0.006859375, 0.95846875, 0.243390625, 192.0, 0.0, 0.0, 0.0, 0.0, 0.0, 0.0, 0.0, 0.0, 0.0, 1.7076809700536544E9, 0.0, 2024-02-11 14:49:30.053
194.0, 36240.47025924567, 36287.431274346265, -11198.626303509034, 1743.592529725138, 6239.556519932333, 6553.754991740584, -5745.426505258859, 12575.113782300208, 1341.328184762977, -187500.02235174447, -2235.2862042529828, -36149.05162442346, -187500.02235174447, -4516.080560216971, -6565.154381412791, -187500.02235174447, -0.006859375, 0.95846875, 0.243390625, 192.0, 0.0, 0.0, 0.0, 0.0, 0.0, 0.0, 0.0, 0.0, 0.0, 1.7076809701006186E9, 0.0, 2024-02-11 14:49:30.100
194.0, 36565.24110618128, 36139.90976094124, -11292.146002310039, 1669.8764765115354, 6096.840631585197, 6378.852591377806, -5886.331902305115, 13865.681155405184, 1341.328184762977, -187500.02235174447, -2235.2862042529828, -36149.05162442346, -187500.02235174447, -4516.080560216971, -6565.154381412791, -187500.02235174447, -0.006859375, 0.95846875, 0.243390625, 192.0, 0.0, 0.0, 0.0, 0.0, 0.0, 0.0, 0.0, 0.0, 0.0, 1.7076809701006649E9, 0.0, 2024-02-11 14:49:30.100
194.0, 36163.17792691921, 36302.16107394231, -11165.903349626464, 1766.2571986028195, 6239.735333887975, 6555.185503385724, -5750.880330905954, 12652.115541948742, 1341.328184762977, -187500.02235174447, -2235.2862042529828, -36149.05162442346, -187500.02235174447, -4516.080560216971, -6565.154381412791, -187500.02235174447, -0.006859375, 0.95846875, 0.243390625, 192.0, 0.0, 0.0, 0.0, 0.0, 0.0, 0.0, 0.0, 0.0, 0.0, 1.7076809701006744E9, 0.0, 2024-02-11 14:49:30.100
194.0, 36210.116590275364, 36298.60714657392, -11194.066547640152, 1740.753858179314, 6244.585662434776, 6565.10967792388, -5741.269080790172, 12528.666857322081, 1341.328184762977, -187500.02235174447, -2235.2862042529828, -36149.05162442346, -187500.02235174447, -4516.080560216971, -6565.154381412791, -187500.02235174447, -0.006859375, 0.95846875, 0.243390625, 192.0, 0.0, 0.0, 0.0, 0.0, 0.0, 0.0, 0.0, 0.0, 0.0, 1.707680970100682E9, 0.0, 2024-02-11 14:49:30.100
194.0, 36213.178779265734, 36279.58581204245, -11177.570960232135, 1772.4262800724841, 6205.805385804819, 6524.295392548489, -5730.674353918356, 11757.196397447158, 1341.328184762977, -187500.02235174447, -2235.2862042529828, -36149.05162442346, -187500.02235174447, -4516.080560216971, -6565.154381412791, -187500.02235174447, -0.006859375, 0.95846875, 0.243390625, 192.0, 0.0, 0.0, 0.0, 0.0, 0.0, 0.0, 0.0, 0.0, 0.0, 1.707680970100688E9, 0.0, 2024-02-11 14:49:30.100
194.0, 36612.55974919316, 36162.037987952, -11265.94975780842, 1698.6655233699707, 6130.837634901719, 6408.513356269998, -5855.687660656889, 13506.153345841569, 1341.328184762977, -187500.02235174447, -2235.2862042529828, -36149.05162442346, -187500.02235174447, -4516.080560216971, -6565.154381412791, -187500.02235174447, -0.006859375, 0.95846875, 0.243390625, 192.0, 0.0, 0.0, 0.0, 0.0, 0.0, 0.0, 0.0, 0.0, 0.0, 1.7076809701006944E9, 0.0, 2024-02-11 14:49:30.100
194.0, 36224.62287242685, 36288.43710284676, -11194.826506951631, 1738.3622215225962, 6242.506950200433, 6559.141762154313, -5748.242825060228, 12566.351898473727, 1341.328184762977, -187500.02235174447, -2235.2862042529828, -36149.05162442346, -187500.02235174447, -4516.080560216971, -6565.154381412791, -187500.02235174447, -0.0064296875, 0.959234375, 0.2476953125, 192.0, 127.5, 104.0, 15.0, 0.0, 3.5, 112.0, 0.0, 0.0, 0.0, 1.7076809701007E9, 0.0, 2024-02-11 14:49:30.100
194.0, 36583.39072267899, 36185.440264396704, -11235.059646971184, 1735.6353086990487, 6149.5907484997215, 6429.501644313532, -5812.213517691317, 13259.52419752171, 1341.328184762977, -187500.02235174447, -2235.2862042529828, -36149.05162442346, -187500.02235174447, -4516.080560216971, -6565.154381412791, -187500.02235174447, -0.0064296875, 0.959234375, 0.2476953125, 192.0, 63.75, 52.0, 7.5, 0.0, 1.75, 56.0, 0.0, 0.0, 0.0, 1.7076809701007056E9, 0.0, 2024-02-11 14:49:30.100
194.0, 36218.297328746004, 36283.385608599856, -11184.075317868628, 1763.1950096124424, 6241.501121699944, 6555.163151641268, -5725.734618393733, 12431.392065452585, 1341.328184762977, -187500.02235174447, -2235.2862042529828, -36149.05162442346, -187500.02235174447, -4516.080560216971, -6565.154381412791, -187500.02235174447, -0.0064296875, 0.959234375, 0.2476953125, 192.0, 31.875, 26.0, 3.75, 0.0, 0.875, 28.0, 0.0, 0.0, 0.0, 1.7076809701007133E9, 0.0, 2024-02-11 14:49:30.100
194.0, 36175.47138636964, 36266.19711711373, -11199.922704687442, 1723.6100701820935, 6200.485670624455, 6527.849319916883, -5773.634406761456, 12873.174294611728, 1341.328184762977, -187500.02235174447, -2235.2862042529828, -36149.05162442346, -187500.02235174447, -4516.080560216971, -6565.154381412791, -187500.02235174447, -0.00521484375, 0.9586171875, 0.24984765625, 192.0, 143.4375, 125.0, 16.375, 120.0, 3.9375, 126.0, 0.0, 0.0, 0.0, 1.707680970100719E9, 0.0, 2024-02-11 14:49:30.100
194.0, 36220.08546830243, 36286.33603886796, -11194.893562184998, 1744.978337881367, 6232.359258217723, 6549.955195183182, -5715.765740366667, 12450.167530795043, 1341.328184762977, -187500.02235174447, -2235.2862042529828, -36149.05162442346, -187500.02235174447, -4516.080560216971, -6565.154381412791, -187500.02235174447, -0.00521484375, 0.9586171875, 0.24984765625, 192.0, 71.71875, 62.5, 8.1875, 60.0, 1.96875, 63.0, 0.0, 0.0, 0.0, 1.7076809701007252E9, 0.0, 2024-02-11 14:49:30.100
204.0, 36234.77056440956, 36276.63538177435, -11181.504867256268, 1766.458364302917, 6239.601223421243, 6539.807503200473, -5739.123313322462, 12490.624188259148, 1454.9421018293026, -187500.02235174447, -2139.3972205397154, -36039.34926263682, -187500.02235174447, -4392.721282568131, -6479.278979215501, -187500.02235174447, -0.00521484375, 0.9586171875, 0.24984765625, 192.0, 0.0, 0.0, 0.0, 0.0, 0.0, 0.0, 0.0, 0.0, 0.0, 1.7076809701487236E9, 0.0, 2024-02-11 14:49:30.148
204.0, 36183.897994029285, 36283.18444289976, -11194.35712031807, 1725.6217271830712, 6241.791694377863, 6555.274910363545, -5755.931825152854, 12537.42874114856, 1454.9421018293026, -187500.02235174447, -2139.3972205397154, -36039.34926263682, -187500.02235174447, -4392.721282568131, -6479.278979215501, -187500.02235174447, -0.00521484375, 0.9586171875, 0.24984765625, 192.0, 0.0, 0.0, 0.0, 0.0, 0.0, 0.0, 0.0, 0.0, 0.0, 1.707680970180752E9, 0.0, 2024-02-11 14:49:30.180
202.0, 36169.65993281126, 36266.308875836, -11209.846879225599, 1704.9240118174569, 6188.996873974428, 6523.334267536911, -5761.743278711233, 12985.692976199743, 1402.8178337595266, -187500.02235174447, -2174.958845968109, -36088.14312078275, -187500.02235174447, -4435.636631922321, -6508.71622666314, -187500.02235174447, -0.012, 0.9580000000000001, 0.248, 192.0, 127.5, 80.0, 14.5, 120.0, 3.5, 96.0, 0.0, 0.0, 0.0, 1.7076809702397823E9, 0.0, 2024-02-11 14:49:30.239
202.0, 36224.6005206824, 36294.18150117177, -11180.54374224469, 1755.2154368418976, 6244.451551968044, 6548.435276560221, -5723.566499181569, 12495.340406339217, 1402.8178337595266, -187500.02235174447, -2174.958845968109, -36088.14312078275, -187500.02235174447, -4435.636631922321, -6508.71622666314, -187500.02235174447, -0.007, 0.9630000000000001, 0.252, 192.0, 191.25, 160.0, 22.25, 92.0, 5.75, 48.0, 0.0, 0.0, 0.0, 1.7076809702398033E9, 0.0, 2024-02-11 14:49:30.239
202.0, 36186.691962086195, 36293.04156220455, -11190.982006905318, 1732.6401749420377, 6244.965642090517, 6554.0232126740475, -5765.90070317992, 12586.691985928057, 1402.8178337595266, -187500.02235174447, -2174.958845968109, -36088.14312078275, -187500.02235174447, -4435.636631922321, -6508.71622666314, -187500.02235174447, -0.007, 0.9630000000000001, 0.252, 192.0, 95.625, 80.0, 11.125, 46.0, 2.875, 24.0, 0.0, 0.0, 0.0, 1.7076809702398117E9, 0.0, 2024-02-11 14:49:30.239
202.0, 36242.66073020229, 36290.292297636544, -11174.464067752848, 1767.39713757004, 6251.112371815726, 6549.955195183182, -5728.6626969173785, 12531.550232356816, 1402.8178337595266, -187500.02235174447, -2174.958845968109, -36088.14312078275, -187500.02235174447, -4435.636631922321, -6508.71622666314, -187500.02235174447, -0.007, 0.9630000000000001, 0.252, 192.0, 47.8125, 40.0, 5.5625, 23.0, 1.4375, 12.0, 0.0, 0.0, 0.0, 1.7076809702398174E9, 0.0, 2024-02-11 14:49:30.239
202.0, 36182.19926145068, 36252.69666346272, -11223.056760198684, 1694.2845814567306, 6172.121306910671, 6505.966962095137, -5798.109566940018, 13124.296143567104, 1402.8178337595266, -187500.02235174447, -2174.958845968109, -36088.14312078275, -187500.02235174447, -4435.636631922321, -6508.71622666314, -187500.02235174447, -0.007, 0.9630000000000001, 0.252, 192.0, 23.90625, 20.0, 2.78125, 11.5, 0.71875, 6.0, 0.0, 0.0, 0.0, 1.7076809702398229E9, 0.0, 2024-02-11 14:49:30.239
202.0, 36280.36812309839, 36225.002852082594, -11229.918745746463, 1701.1912704934205, 6166.242798118926, 6479.480144915598, -5809.285439167672, 13732.62122066274, 1402.8178337595266, -187500.02235174447, -2174.958845968109, -36088.14312078275, -187500.02235174447, -4435.636631922321, -6508.71622666314, -187500.02235174447, -0.007, 0.9630000000000001, 0.252, 192.0, 11.953125, 10.0, 1.390625, 5.75, 0.359375, 3.0, 0.0, 0.0, 0.0, 1.7076809702398283E9, 0.0, 2024-02-11 14:49:30.239
202.0, 36162.373264118825, 36295.03086746107, -11189.21621909335, 1732.371954008574, 6239.176540276592, 6551.095134150402, -5759.239883332239, 12573.035070065866, 1402.8178337595266, -187500.02235174447, -2174.958845968109, -36088.14312078275, -187500.02235174447, -4435.636631922321, -6508.71622666314, -187500.02235174447, -0.0085, 0.9585000000000001, 0.248, 192.0, 133.4765625, 93.0, 15.1953125, 106.875, 3.6796875, 81.5, 0.0, 0.0, 0.0, 1.7076809702398343E9, 0.0, 2024-02-11 14:49:30.239
202.0, 36210.00483155309, 36308.77719030109, -11172.184189818405, 1761.8762566895791, 6256.85677014074, 6567.411907602776, -5707.428539684837, 12499.877810463646, 1402.8178337595266, -187500.02235174447, -2174.958845968109, -36088.14312078275, -187500.02235174447, -4435.636631922321, -6508.71622666314, -187500.02235174447, -0.0085, 0.9585000000000001, 0.248, 192.0, 66.73828125, 46.5, 7.59765625, 53.4375, 1.83984375, 40.75, 0.0, 0.0, 0.0, 1.7076809702398396E9, 0.0, 2024-02-11 14:49:30.239
202.0, 36227.997985839604, 36304.083323965475, -11183.963559146352, 1759.8422479441463, 6248.720735159009, 6580.44297462022, -5721.666600902868, 12405.151117462054, 1402.8178337595266, -187500.02235174447, -2174.958845968109, -36088.14312078275, -187500.02235174447, -4435.636631922321, -6508.71622666314, -187500.02235174447, -0.0085, 0.9585000000000001, 0.248, 192.0, 33.369140625, 23.25, 3.798828125, 26.71875, 0.919921875, 20.375, 0.0, 0.0, 0.0, 1.7076809702558513E9, 0.0, 2024-02-11 14:49:30.255
12.0, 36213.178779265734, 36285.64313478984, -11198.64865525349, 1745.3583175371073, 6232.85099659574, 6555.856055719382, -5714.625801399446, 12425.759425849847, 1717.2621747567864, -187500.02235174447, -1897.3054763442847, -35804.83475981173, -187500.02235174447, -4158.050317531863, -6256.454438740545, -187500.02235174447, -0.0085, 0.9585000000000001, 0.248, 192.0, 0.0, 0.0, 0.0, 0.0, 0.0, 0.0, 0.0, 0.0, 0.0, 1.7076809705212352E9, 0.0, 2024-02-11 14:49:30.521
14.0, 36336.35924295893, 36245.633512214845, -11181.706032956366, 1743.1231430915766, 6227.240708737459, 6531.827930429928, -5739.927976122854, 11953.332955042477, 1751.1250676065765, -187500.02235174447, -1894.7573774763798, -35793.34596316171, -187500.02235174447, -4150.674241861611, -6275.922808161117, -187500.02235174447, -0.0085, 0.9585000000000001, 0.248, 192.0, 0.0, 0.0, 0.0, 0.0, 0.0, 0.0, 0.0, 0.0, 0.0, 1.707680970521263E9, 0.0, 2024-02-11 14:49:30.521
18.0, 36218.163218279275, 36310.5206263686, -11170.26193979525, 1772.6497975170373, 6259.248406797458, 6584.890971766827, -5711.496557175703, 12363.845093708647, 1735.076515087666, -187500.02235174447, -1900.0100374233768, -35797.9504225195, -187500.02235174447, -4146.829741815298, -6267.071517356815, -187500.02235174447, -0.0085, 0.9585000000000001, 0.248, 192.0, 0.0, 0.0, 0.0, 0.0, 0.0, 0.0, 0.0, 0.0, 0.0, 1.707680970521272E9, 0.0, 2024-02-11 14:49:30.521
18.0, 36306.36320189991, 36249.52271575007, -11194.535934273712, 1739.4574570009063, 6233.745066373953, 6537.348811310389, -5732.104865563496, 11784.040842537981, 1735.076515087666, -187500.02235174447, -1900.0100374233768, -35797.9504225195, -187500.02235174447, -4146.829741815298, -6267.071517356815, -187500.02235174447, -0.0085, 0.9585000000000001, 0.248, 192.0, 0.0, 0.0, 0.0, 0.0, 0.0, 0.0, 0.0, 0.0, 0.0, 1.7076809705212789E9, 0.0, 2024-02-11 14:49:30.521
18.0, 36242.414861013276, 36259.51394552159, -11185.68464346941, 1739.3904017675402, 6236.337868730769, 6543.674354991241, -5736.1728830543625, 11546.844130378262, 1735.076515087666, -187500.02235174447, -1900.0100374233768, -35797.9504225195, -187500.02235174447, -4146.829741815298, -6267.071517356815, -187500.02235174447, -0.0085, 0.9585000000000001, 0.248, 192.0, 0.0, 0.0, 0.0, 0.0, 0.0, 0.0, 0.0, 0.0, 0.0, 1.7076809705212853E9, 0.0, 2024-02-11 14:49:30.521
74.0, 36149.230438379105, 36297.80248377353, -11165.053983337162, 1755.1483816085317, 6258.510799230433, 6578.54307634152, -5693.056368000075, 12183.488867698774, 1855.7982868907795, -187500.02235174447, -1761.853904945124, -35699.1780637715, -187500.02235174447, -4000.738740055411, -6072.007843495351, -187500.02235174447, -0.01, 0.9580000000000001, 0.25, 192.0, 127.5, 88.0, 14.5, 120.0, 3.5, 104.0, 0.0, 0.0, 0.0, 1.707680970521295E9, 0.0, 2024-02-11 14:49:30.521
50.0, 36056.62716110077, 36391.746865719186, -11088.588665555557, 1807.78673980078, 6320.358076138267, 6673.202714109745, -5626.694038712268, 11597.135555402703, 1801.7741205423024, -187500.02235174447, -1839.883844838601, -35725.419011762024, -187500.02235174447, -4091.2186016104943, -6263.361127777234, -187500.02235174447, -0.006, 0.9520000000000001, 0.256, 192.0, 0.0, 0.0, 0.0, 0.0, 0.0, 0.0, 0.0, 0.0, 0.0, 1.707680970521316E9, 0.0, 2024-02-11 14:49:30.521
66.0, 36024.731221763046, 36410.29881361709, -11063.487656532247, 1839.2803477383077, 6357.7972481009065, 6709.211374427245, -5582.77286085759, 11415.5946869367, 2011.8805184221887, -187500.02235174447, -1617.6851532083933, -35525.8849890095, -187500.02235174447, -3889.739977090356, -6080.367395921636, -187500.02235174447, -0.006, 0.9520000000000001, 0.256, 192.0, 0.0, 0.0, 0.0, 0.0, 0.0, 0.0, 0.0, 0.0, 0.0, 1.7076809705213232E9, 0.0, 2024-02-11 14:49:30.521
58.0, 36390.45046454078, 36242.303102291, -11191.004358649774, 1728.9744888513671, 6219.596412133743, 6528.564575739453, -5745.873540147965, 12350.791674946748, 1961.3655759531948, -187500.02235174447, -1740.2844715457527, -35596.315335788175, -187500.02235174447, -3981.1362601681067, -6267.898531901662, -187500.02235174447, -0.006, 0.9520000000000001, 0.256, 192.0, 0.0, 0.0, 0.0, 0.0, 0.0, 0.0, 0.0, 0.0, 0.0, 1.707680970521332E9, 0.0, 2024-02-11 14:49:30.521
60.0, 35991.516529502456, 36435.82450578505, -11029.691818915822, 1877.2559615678742, 6404.355931801311, 6738.067476519046, -5548.127656951864, 11060.224301841772, 2016.708495224535, -187500.02235174447, -1675.3750056475408, -35525.0356227202, -187500.02235174447, -3931.49303573287, -6241.90345310014, -187500.02235174447, -0.006, 0.9520000000000001, 0.256, 192.0, 0.0, 0.0, 0.0, 0.0, 0.0, 0.0, 0.0, 0.0, 0.0, 1.7076809705213394E9, 0.0, 2024-02-11 14:49:30.521
60.0, 36398.63120301142, 36237.49747723311, -11205.398882078993, 1727.9016051175124, 6222.770359846397, 6521.412017513754, -5762.145610111429, 12216.61415298154, 2016.708495224535, -187500.02235174447, -1675.3750056475408, -35525.0356227202, -187500.02235174447, -3931.49303573287, -6241.90345310014, -187500.02235174447, -0.006, 0.9550000000000001, 0.247, 192.0, 127.5, 104.0, 14.5, 120.0, 3.5, 56.0, 0.0, 0.0, 0.0, 1.707680970521345E9, 0.0, 2024-02-11 14:49:30.521
86.0, 36436.74092730772, 36219.057288057484, -11215.546574061702, 1717.9774305793562, 6203.100824725727, 6508.537412707497, -5774.2155521172945, 12597.800802922346, 1668.4236131219404, -187500.02235174447, -1925.2898604023292, -35873.00758040042, -187500.02235174447, -4198.864602907253, -6147.802608943297, -187500.02235174447, -0.006, 0.9550000000000001, 0.247, 192.0, 0.0, 0.0, 0.0, 0.0, 0.0, 0.0, 0.0, 0.0, 0.0, 1.707680970521352E9, 0.0, 2024-02-11 14:49:30.521
90.0, 36507.372439786486, 36179.293534671495, -11236.266641171771, 1709.953154319901, 6170.869609221174, 6476.0156245250255, -5787.38072960147, 13063.54410213758, 1569.8524200740362, -187500.02235174447, -1984.4772797199823, -35938.56524688783, -187500.02235174447, -4268.937321774641, -6176.904580224107, -187500.02235174447, -0.006, 0.9550000000000001, 0.247, 192.0, 0.0, 0.0, 0.0, 0.0, 0.0, 0.0, 0.0, 0.0, 0.0, 1.7076809705213618E9, 0.0, 2024-02-11 14:49:30.521
92.0, 36506.187797330356, 36174.890241013796, -11250.348240178615, 1694.0387122677223, 6160.923082938562, 6471.657034356241, -5795.740282027756, 13256.618470742522, 1496.3598843049865, -187500.02235174447, -2052.7618590309453, -36012.5495210349, -187500.02235174447, -4326.560118980422, -6213.650848108631, -187500.02235174447, -0.004, 0.9565000000000001, 0.2435, 192.0, 127.5, 120.0, 14.5, 120.0, 3.5, 64.0, 0.0, 0.0, 0.0, 1.7076809705213692E9, 0.0, 2024-02-11 14:49:30.521
94.0, 36555.2275246653, 36171.89510725679, -11250.862330301086, 1703.694665872415, 6162.308891094791, 6464.504476130543, -5813.822843292099, 13498.553752726764, 1484.1334800879335, -187500.02235174447, -2083.2496384679844, -36031.436745099636, -187500.02235174447, -4354.253930360547, -6255.515665473422, -187500.02235174447, -0.004, 0.9565000000000001, 0.2435, 192.0, 0.0, 0.0, 0.0, 0.0, 0.0, 0.0, 0.0, 0.0, 0.0, 1.7076809705213764E9, 0.0, 2024-02-11 14:49:30.521
96.0, 36580.01560926624, 36178.75709280457, -11258.03724027124, 1695.5809826351385, 6163.895864951118, 6465.934987775682, -5781.613979532001, 13727.23445024901, 1462.9216745998472, -187500.02235174447, -2129.003659367998, -36085.95264982613, -187500.02235174447, -4401.1925937166925, -6275.4981250164665, -187500.02235174447, -0.004, 0.9565000000000001, 0.2435, 192.0, 0.0, 0.0, 0.0, 0.0, 0.0, 0.0, 0.0, 0.0, 0.0, 1.7076809705213835E9, 0.0, 2024-02-11 14:49:30.521
98.0, 36647.07084263216, 36165.90483974276, -11255.511493147791, 1713.0376950547334, 6165.326376596257, 6456.65901382673, -5846.814018108132, 14050.843006472947, 1401.6555430478506, -187500.02235174447, -2158.5079620490033, -36112.90885363923, -187500.02235174447, -4434.094361554904, -6288.752709478464, -187500.02235174447, -0.004, 0.9565000000000001, 0.2435, 192.0, 0.0, 0.0, 0.0, 0.0, 0.0, 0.0, 0.0, 0.0, 0.0, 1.707680970521391E9, 0.0, 2024-02-11 14:49:30.521
100.0, 36660.63835151653, 36160.49571758458, -11267.827304342665, 1694.0834157566328, 6156.475085791956, 6452.859217269328, -5862.974329349319, 14313.96774220082, 1345.418553998298, -187500.02235174447, -2206.899488794743, -36171.26925841204, -187500.02235174447, -4469.991263150127, -6298.363959594245, -187500.02235174447, -0.004, 0.9565000000000001, 0.2435, 192.0, 0.0, 0.0, 0.0, 0.0, 0.0, 0.0, 0.0, 0.0, 0.0, 1.707680970521398E9, 0.0, 2024-02-11 14:49:30.521
102.0, 36671.34483711062, 36163.60261006387, -11265.994461297329, 1699.3807791925406, 6157.480914292445, 6454.535598103475, -5851.306718743649, 14541.910832156043, 1330.1523125353233, -187500.02235174447, -2242.8857973677873, -36198.53838664751, -187500.02235174447, -4502.133071676859, -6361.418230702667, -187500.02235174447, -0.005, 0.9572500000000002, 0.23975000000000002, 192.0, 127.5, 104.0, 14.5, 120.0, 3.5, 48.0, 0.0, 0.0, 0.0, 1.7076809705214057E9, 0.0, 2024-02-11 14:49:30.521
104.0, 36650.334197322634, 36178.42181663773, -11266.217978741883, 1686.4391191529178, 6153.971690412962, 6459.609444094831, -5837.4262854369035, 14704.162145157117, 1282.744262545617, -187500.02235174447, -2266.9139226572424, -36229.87553237385, -187500.02235174447, -4526.787045811063, -6379.411384989189, -187500.02235174447, -0.005, 0.9572500000000002, 0.23975000000000002, 192.0, 0.0, 0.0, 0.0, 0.0, 0.0, 0.0, 0.0, 0.0, 0.0, 1.707680970521413E9, 0.0, 2024-02-11 14:49:30.521
108.0, 36610.81631312565, 36173.839709024396, -11273.839923601143, 1676.559648103672, 6150.350707811202, 6460.65997608423, -5819.209613705828, 14916.280200037982, 1267.522724571553, -187500.02235174447, -2291.3220276024376, -36251.26615181758, -187500.02235174447, -4569.568284698521, -6432.943812959649, -187500.02235174447, -0.005, 0.9572500000000002, 0.23975000000000002, 192.0, 0.0, 0.0, 0.0, 0.0, 0.0, 0.0, 0.0, 0.0, 0.0, 1.707680970521422E9, 0.0, 2024-02-11 14:49:30.521
110.0, 36567.006893993246, 36197.465502913656, -11239.060609228685, 1696.6762181134486, 6165.974577185461, 6482.363519950333, -5821.221270706806, 14901.975083586585, 1274.5411723305194, -187500.02235174447, -2305.7389027761105, -36248.65099771631, -187500.02235174447, -4580.073604592515, -6503.1282905493135, -187500.02235174447, -0.005, 0.9572500000000002, 0.23975000000000002, 192.0, 0.0, 0.0, 0.0, 0.0, 0.0, 0.0, 0.0, 0.0, 0.0, 1.7076809705214293E9, 0.0, 2024-02-11 14:49:30.521
112.0, 36530.84177146456, 36201.42176168224, -11235.976068493852, 1691.9376482889234, 6164.9687486849725, 6483.7046246176515, -5771.488639293747, 14892.788516615454, 1304.224288967167, -187500.02235174447, -2283.275399598527, -36225.136962549324, -187500.02235174447, -4555.911368836328, -6487.727938619607, -187500.02235174447, -0.0055, 0.9616250000000001, 0.238875, 192.0, 127.5, 104.0, 15.0, 24.0, 3.5, 56.0, 0.0, 0.0, 0.0, 1.7076809705214365E9, 0.0, 2024-02-11 14:49:30.521
114.0, 36486.250041276224, 36212.441171698716, -11222.542670076213, 1707.695628129915, 6179.452679092012, 6498.121499791325, -5775.199028873329, 14836.439768843624, 1310.2816117145553, -187500.02235174447, -2285.9129054442533, -36225.51694220507, -187500.02235174447, -4558.660633404331, -6539.695744478196, -187500.02235174447, -0.0055, 0.9616250000000001, 0.238875, 192.0, 0.0, 0.0, 0.0, 0.0, 0.0, 0.0, 0.0, 0.0, 0.0, 1.7076809705214436E9, 0.0, 2024-02-11 14:49:30.521
116.0, 36479.768035384186, 36211.27888098704, -11221.089806686618, 1705.6169158955713, 6174.870571478674, 6496.3333602349, -5790.264104636205, 14841.424207857157, 1315.1542920058123, -187500.02235174447, -2262.242408066083, -36196.30321220198, -187500.02235174447, -4535.817150571007, -6499.015569569537, -187500.02235174447, -0.0055, 0.9616250000000001, 0.238875, 192.0, 0.0, 0.0, 0.0, 0.0, 0.0, 0.0, 0.0, 0.0, 0.0, 1.707680970761453E9, 0.0, 2024-02-11 14:49:30.761
118.0, 36443.98289251124, 36237.98921561113, -11208.796347236199, 1717.2845265012415, 6188.371025129679, 6519.24389830159, -5765.967758413286, 14760.913224329142, 1323.8938240878374, -187500.02235174447, -2264.566989489435, -36204.26043322807, -187500.02235174447, -4540.689830862264, -6539.136950866813, -187500.02235174447, -0.0055, 0.9616250000000001, 0.238875, 192.0, 0.0, 0.0, 0.0, 0.0, 0.0, 0.0, 0.0, 0.0, 0.0, 1.7076809708184783E9, 0.0, 2024-02-11 14:49:30.818
118.0, 36094.37925748578, 36372.47966199871, -11097.350549382038, 1791.3582076261293, 6287.299846088868, 6634.310678757511, -5657.382983849405, 11896.090137492436, 1323.8938240878374, -187500.02235174447, -2264.566989489435, -36204.26043322807, -187500.02235174447, -4540.689830862264, -6539.136950866813, -187500.02235174447, -0.0055, 0.9616250000000001, 0.238875, 192.0, 0.0, 0.0, 0.0, 0.0, 0.0, 0.0, 0.0, 0.0, 0.0, 1.7076809708185017E9, 0.0, 2024-02-11 14:49:30.818
118.0, 36078.95655381162, 36388.84113894, -11059.419639041382, 1822.3377254411848, 6315.083064446815, 6659.769315692105, -5637.892262684377, 11886.2553699321, 1323.8938240878374, -187500.02235174447, -2264.566989489435, -36204.26043322807, -187500.02235174447, -4540.689830862264, -6539.136950866813, -187500.02235174447, -0.0055, 0.9616250000000001, 0.238875, 192.0, 0.0, 0.0, 0.0, 0.0, 0.0, 0.0, 0.0, 0.0, 0.0, 1.7076809708185096E9, 0.0, 2024-02-11 14:49:30.818
118.0, 36283.65382953332, 36334.88402782488, -11140.712933625333, 1777.2989603637411, 6268.703194702053, 6589.897762524815, -5727.165130038873, 12330.429235747963, 1323.8938240878374, -187500.02235174447, -2264.566989489435, -36204.26043322807, -187500.02235174447, -4540.689830862264, -6539.136950866813, -187500.02235174447, -0.0055, 0.9616250000000001, 0.238875, 192.0, 0.0, 0.0, 0.0, 0.0, 0.0, 0.0, 0.0, 0.0, 0.0, 1.7076809708696065E9, 0.0, 2024-02-11 14:49:30.869
118.0, 36370.5350602311, 36261.81617520049, -11186.39989929198, 1731.4778842303615, 6210.901583540629, 6552.9056254512825, -5731.411961485382, 14570.454009825471, 1323.8938240878374, -187500.02235174447, -2264.566989489435, -36204.26043322807, -187500.02235174447, -4540.689830862264, -6539.136950866813, -187500.02235174447, -0.00975, 0.9628125000000001, 0.23743750000000002, 192.0, 127.5, 72.0, 15.0, 16.0, 3.5, 48.0, 0.0, 0.0, 0.0, 1.707680970869625E9, 0.0, 2024-02-11 14:49:30.869
118.0, 36060.60577161381, 36417.36196486497, -11065.94634842233, 1811.1618532135312, 6325.923660507639, 6682.881019458892, -5646.631794766402, 11944.928699127282, 1323.8938240878374, -187500.02235174447, -2264.566989489435, -36204.26043322807, -187500.02235174447, -4540.689830862264, -6539.136950866813, -187500.02235174447, -0.00975, 0.9628125000000001, 0.23743750000000002, 192.0, 63.75, 36.0, 7.5, 8.0, 1.75, 24.0, 0.0, 0.0, 0.0, 1.7076809708696337E9, 0.0, 2024-02-11 14:49:30.869
118.0, 36252.16022159579, 36351.15609778835, -11122.920945038908, 1782.395158099551, 6277.263912828435, 6610.0813877679575, -5717.911507834377, 12243.436246327907, 1323.8938240878374, -187500.02235174447, -2264.566989489435, -36204.26043322807, -187500.02235174447, -4540.689830862264, -6539.136950866813, -187500.02235174447, -0.00975, 0.9628125000000001, 0.23743750000000002, 192.0, 31.875, 18.0, 3.75, 4.0, 0.875, 12.0, 0.0, 0.0, 0.0, 1.70768097086964E9, 0.0, 2024-02-11 14:49:30.869
118.0, 36263.112576378895, 36350.776118132606, -11108.459366376324, 1786.0831959346767, 6280.974302408016, 6613.747073858628, -5693.704568589279, 12249.739438264303, 1323.8938240878374, -187500.02235174447, -2264.566989489435, -36204.26043322807, -187500.02235174447, -4540.689830862264, -6539.136950866813, -187500.02235174447, -0.00975, 0.9628125000000001, 0.23743750000000002, 192.0, 15.9375, 9.0, 1.875, 2.0, 0.4375, 6.0, 0.0, 0.0, 0.0, 1.7076809708696465E9, 0.0, 2024-02-11 14:49:30.869
118.0, 36049.00521624151, 36418.27838638763, -11046.790903424133, 1828.4173999330283, 6332.316259421857, 6681.383452580387, -5637.936966173287, 12031.407598424865, 1323.8938240878374, -187500.02235174447, -2264.566989489435, -36204.26043322807, -187500.02235174447, -4540.689830862264, -6539.136950866813, -187500.02235174447, -0.00975, 0.9628125000000001, 0.23743750000000002, 192.0, 7.96875, 4.5, 0.9375, 1.0, 0.21875, 3.0, 0.0, 0.0, 0.0, 1.7076809708696525E9, 0.0, 2024-02-11 14:49:30.869
118.0, 36246.97461688216, 36346.68574889729, -11110.694540821856, 1785.2785331342857, 6276.794526194874, 6611.891879068838, -5685.277960929628, 12198.956274861846, 1323.8938240878374, -187500.02235174447, -2264.566989489435, -36204.26043322807, -187500.02235174447, -4540.689830862264, -6539.136950866813, -187500.02235174447, -0.00975, 0.9628125000000001, 0.23743750000000002, 192.0, 3.984375, 2.25, 0.46875, 0.5, 0.109375, 1.5, 0.0, 0.0, 0.0, 1.707680970869664E9, 0.0, 2024-02-11 14:49:30.869
118.0, 36309.06776297901, 36298.204815173725, -11169.390221761492, 1735.9929366103336, 6241.322307744302, 6579.68301530874, -5708.836699585521, 14264.302166021129, 1323.8938240878374, -187500.02235174447, -2264.566989489435, -36204.26043322807, -187500.02235174447, -4540.689830862264, -6539.136950866813, -187500.02235174447, -0.00975, 0.9628125000000001, 0.23743750000000002, 192.0, 1.9921875, 1.125, 0.234375, 0.25, 0.0546875, 0.75, 0.0, 0.0, 0.0, 1.707680970869671E9, 0.0, 2024-02-11 14:49:30.869
118.0, 36248.293369805026, 36338.28149298209, -11128.665343363922, 1772.0686521611992, 6277.62154073972, 6608.472062167176, -5685.389719651905, 12203.694844686372, 1323.8938240878374, -187500.02235174447, -2264.566989489435, -36204.26043322807, -187500.02235174447, -4540.689830862264, -6539.136950866813, -187500.02235174447, -0.00975, 0.9628125000000001, 0.23743750000000002, 192.0, 0.99609375, 0.5625, 0.1171875, 0.125, 0.02734375, 0.375, 0.0, 0.0, 0.0, 1.7076809708696768E9, 0.0, 2024-02-11 14:49:30.869
118.0, 36075.80495784342, 36393.08797038651, -11073.210665370307, 1806.6691525780145, 6307.751692265474, 6661.713917459717, -5639.367477818427, 12356.737238971858, 1323.8938240878374, -187500.02235174447, -2264.566989489435, -36204.26043322807, -187500.02235174447, -4540.689830862264, -6539.136950866813, -187500.02235174447, -0.00975, 0.9628125000000001, 0.23743750000000002, 192.0, 0.498046875, 0.28125, 0.05859375, 0.0625, 0.013671875, 0.1875, 0.0, 0.0, 0.0, 1.7076809709016829E9, 0.0, 2024-02-11 14:49:30.901
118.0, 36230.59078819642, 36322.34469918546, -11127.748921841256, 1776.5837045411713, 6270.111354602737, 6596.759748072594, -5698.644304113902, 12137.824253776582, 1323.8938240878374, -187500.02235174447, -2264.566989489435, -36204.26043322807, -187500.02235174447, -4540.689830862264, -6539.136950866813, -187500.02235174447, -0.00975, 0.9628125000000001, 0.23743750000000002, 192.0, 0.2490234375, 0.140625, 0.029296875, 0.03125, 0.0068359375, 0.09375, 0.0, 0.0, 0.0, 1.7076809710699131E9, 0.0, 2024-02-11 14:49:31.069
118.0, 36063.153870481714, 36403.01214492466, -11065.901644933421, 1797.6390478180706, 6308.891631232695, 6672.263940842622, -5620.904936898343, 12486.220894601453, 1323.8938240878374, -187500.02235174447, -2264.566989489435, -36204.26043322807, -187500.02235174447, -4540.689830862264, -6539.136950866813, -187500.02235174447, -0.00975, 0.9628125000000001, 0.23743750000000002, 192.0, 0.12451171875, 0.0703125, 0.0146484375, 0.015625, 0.00341796875, 0.046875, 0.0, 0.0, 0.0, 1.7076809710699372E9, 0.0, 2024-02-11 14:49:31.069
118.0, 36215.548064178, 36332.53709465708, -11118.607058359035, 1783.8927249780568, 6285.802279210363, 6610.997809290625, -5691.715263332756, 12083.53186649464, 1323.8938240878374, -187500.02235174447, -2264.566989489435, -36204.26043322807, -187500.02235174447, -4540.689830862264, -6539.136950866813, -187500.02235174447, -0.00975, 0.9628125000000001, 0.23743750000000002, 192.0, 0.062255859375, 0.03515625, 0.00732421875, 0.0078125, 0.001708984375, 0.0234375, 0.0, 0.0, 0.0, 1.707680971069945E9, 0.0, 2024-02-11 14:49:31.069
118.0, 36487.389980243446, 36253.47897451866, -11202.604914022078, 1729.2650615292862, 6224.178519747081, 6537.281756077023, -5772.38270907196, 13855.332297722376, 1323.8938240878374, -187500.02235174447, -2264.566989489435, -36204.26043322807, -187500.02235174447, -4540.689830862264, -6539.136950866813, -187500.02235174447, -0.010875, 0.9584062500000001, 0.24571875, 192.0, 127.5311279296875, 80.017578125, 14.503662109375, 104.00390625, 3.5008544921875, 120.01171875, 0.0, 0.0, 0.0, 1.7076809710699513E9, 0.0, 2024-02-11 14:49:31.069
118.0, 36469.15095676792, 36247.242837815626, -11213.132585660529, 1712.1883287654316, 6216.08718825426, 6533.593718241897, -5746.834665159544, 13747.48513072552, 1323.8938240878374, -187500.02235174447, -2264.566989489435, -36204.26043322807, -187500.02235174447, -4540.689830862264, -6539.136950866813, -187500.02235174447, -0.010875, 0.9584062500000001, 0.24571875, 192.0, 63.76556396484375, 40.0087890625, 7.2518310546875, 52.001953125, 1.75042724609375, 60.005859375, 0.0, 0.0, 0.0, 1.7076809710699575E9, 0.0, 2024-02-11 14:49:31.069
118.0, 36370.15508057536, 36334.16877200232, -11142.344610970571, 1771.2639893608082, 6258.175523063604, 6587.595532845919, -5720.660772402379, 12949.527853671058, 1323.8938240878374, -187500.02235174447, -2264.566989489435, -36204.26043322807, -187500.02235174447, -4540.689830862264, -6539.136950866813, -187500.02235174447, -0.010875, 0.9584062500000001, 0.24571875, 192.0, 31.882781982421875, 20.00439453125, 3.62591552734375, 26.0009765625, 0.875213623046875, 30.0029296875, 0.0, 0.0, 0.0, 1.7076809710699637E9, 0.0, 2024-02-11 14:49:31.069
204.0, 36501.13630308346, 36225.919273605265, -11213.020826938251, 1725.2193957828756, 6210.007513762416, 6511.689008675696, -5771.175714871373, 13711.632932619206, 1675.5538196031832, -187500.02235174447, -1877.971217390444, -35836.64129217163, -187500.02235174447, -4180.983207343007, -6285.511706532444, -187500.02235174447, -0.010875, 0.9584062500000001, 0.24571875, 192.0, 0.0, 0.0, 0.0, 0.0, 0.0, 0.0, 0.0, 0.0, 0.0, 1.707680971069972E9, 0.0, 2024-02-11 14:49:31.069
204.0, 36375.98888587819, 36321.18240847378, -11160.091896068085, 1750.0745356171772, 6243.512778700921, 6574.318596639467, -5706.422711184348, 12930.730036584144, 1675.5538196031832, -187500.02235174447, -1877.971217390444, -35836.64129217163, -187500.02235174447, -4180.983207343007, -6285.511706532444, -187500.02235174447, -0.010875, 0.9584062500000001, 0.24571875, 192.0, 0.0, 0.0, 0.0, 0.0, 0.0, 0.0, 0.0, 0.0, 0.0, 1.7076809710699775E9, 0.0, 2024-02-11 14:49:31.069
204.0, 36419.17245616585, 36298.94242274075, -11161.164779801938, 1757.4729630318836, 6241.299955999846, 6555.766648741562, -5739.190368555828, 12916.044940477008, 1675.5538196031832, -187500.02235174447, -1877.971217390444, -35836.64129217163, -187500.02235174447, -4180.983207343007, -6285.511706532444, -187500.02235174447, -0.010875, 0.9584062500000001, 0.24571875, 192.0, 0.0, 0.0, 0.0, 0.0, 0.0, 0.0, 0.0, 0.0, 0.0, 1.707680971069983E9, 0.0, 2024-02-11 14:49:31.069
204.0, 36455.09170950553, 36234.368233009365, -11205.018902423251, 1719.8326253691466, 6210.700417840531, 6529.905680406771, -5760.871560677477, 13511.204840088469, 1675.5538196031832, -187500.02235174447, -1877.971217390444, -35836.64129217163, -187500.02235174447, -4180.983207343007, -6285.511706532444, -187500.02235174447, -0.010875, 0.9584062500000001, 0.24571875, 192.0, 0.0, 0.0, 0.0, 0.0, 0.0, 0.0, 0.0, 0.0, 0.0, 1.7076809710699887E9, 0.0, 2024-02-11 14:49:31.069
204.0, 36255.96001815319, 36347.557466931044, -11129.24648871976, 1779.1765068979869, 6271.139534847682, 6601.364207430388, -5717.3303624785385, 12309.57505817116, 1675.5538196031832, -187500.02235174447, -1877.971217390444, -35836.64129217163, -187500.02235174447, -4180.983207343007, -6285.511706532444, -187500.02235174447, -0.010875, 0.9584062500000001, 0.24571875, 192.0, 0.0, 0.0, 0.0, 0.0, 0.0, 0.0, 0.0, 0.0, 0.0, 1.7076809710699942E9, 0.0, 2024-02-11 14:49:31.069
204.0, 36469.3074189791, 36234.77056440956, -11203.36487333356, 1728.661564428993, 6216.8024440768295, 6532.587889741408, -5753.249615818217, 13427.788129781262, 1675.5538196031832, -187500.02235174447, -1877.971217390444, -35836.64129217163, -187500.02235174447, -4180.983207343007, -6285.511706532444, -187500.02235174447, -0.010875, 0.9584062500000001, 0.24571875, 192.0, 0.0, 0.0, 0.0, 0.0, 0.0, 0.0, 0.0, 0.0, 0.0, 1.7076809710699997E9, 0.0, 2024-02-11 14:49:31.069
206.0, 36319.81895206201, 36352.184278033295, -11118.96468627032, 1794.6886175499699, 6299.638009028198, 6630.68969615575, -5695.559763379069, 12773.150238174228, 1704.43227343944, -187500.02235174447, -1879.7593569468686, -35825.46541994398, -187500.02235174447, -4177.496335207979, -6316.91590749215, -187500.02235174447, -0.010875, 0.9584062500000001, 0.24571875, 192.0, 0.0, 0.0, 0.0, 0.0, 0.0, 0.0, 0.0, 0.0, 0.0, 1.707680971070011E9, 0.0, 2024-02-11 14:49:31.070
206.0, 36416.0432119421, 36258.19519259872, -11183.225951579327, 1736.8870063885458, 6226.592508148255, 6545.373087569844, -5753.763705940689, 13213.412548710412, 1704.43227343944, -187500.02235174447, -1879.7593569468686, -35825.46541994398, -187500.02235174447, -4177.496335207979, -6316.91590749215, -187500.02235174447, -0.0144375, 0.954203125, 0.249859375, 192.0, 127.5, 56.0, 14.5, 88.0, 3.5, 120.0, 0.0, 0.0, 0.0, 1.707680971070017E9, 0.0, 2024-02-11 14:49:31.070
206.0, 36307.637251333865, 36370.66917069783, -11099.853944761033, 1813.7546555703468, 6314.457215602067, 6646.0006411076365, -5673.40918462386, 12680.74812659599, 1704.43227343944, -187500.02235174447, -1879.7593569468686, -35825.46541994398, -187500.02235174447, -4177.496335207979, -6316.91590749215, -187500.02235174447, -0.013218750000000001, 0.9571015625, 0.2509296875, 192.0, 191.25, 108.0, 22.25, 44.0, 5.25, 172.0, 0.0, 0.0, 0.0, 1.7076809710700226E9, 0.0, 2024-02-11 14:49:31.070
206.0, 36412.46693282926, 36276.47891956317, -11173.860570652554, 1758.1658671099983, 6250.754743904441, 6570.943483226715, -5733.8035981421, 13124.430254033836, 1704.43227343944, -187500.02235174447, -1879.7593569468686, -35825.46541994398, -187500.02235174447, -4177.496335207979, -6316.91590749215, -187500.02235174447, -0.013218750000000001, 0.9571015625, 0.2509296875, 192.0, 95.625, 54.0, 11.125, 22.0, 2.625, 86.0, 0.0, 0.0, 0.0, 1.707680971070028E9, 0.0, 2024-02-11 14:49:31.070
214.0, 36371.876164898415, 36298.629498318376, -11146.770256372722, 1775.8460969741461, 6265.842171411774, 6590.277742180556, -5697.236144213217, 12945.124560013362, 1752.7343932073586, -187500.02235174447, -1883.0674151262542, -35818.93871056303, -187500.02235174447, -4169.382651970703, -6298.878049716717, -187500.02235174447, -0.013218750000000001, 0.9571015625, 0.2509296875, 192.0, 0.0, 0.0, 0.0, 0.0, 0.0, 0.0, 0.0, 0.0, 0.0, 1.7076809710700371E9, 0.0, 2024-02-11 14:49:31.070
214.0, 36458.846802574015, 36249.545067494524, -11192.010187150263, 1730.4273522409621, 6223.8432435802515, 6541.506235779076, -5743.66071744689, 13905.824888446914, 1752.7343932073586, -187500.02235174447, -1883.0674151262542, -35818.93871056303, -187500.02235174447, -4169.382651970703, -6298.878049716717, -187500.02235174447, -0.013218750000000001, 0.9571015625, 0.2509296875, 192.0, 0.0, 0.0, 0.0, 0.0, 0.0, 0.0, 0.0, 0.0, 0.0, 1.7076809710700424E9, 0.0, 2024-02-11 14:49:31.070
214.0, 36312.17465545829, 36371.25031605367, -11098.669302304901, 1824.88582430909, 6317.25118365898, 6648.2358155531665, -5677.7901265371, 12637.162224908141, 1752.7343932073586, -187500.02235174447, -1883.0674151262542, -35818.93871056303, -187500.02235174447, -4169.382651970703, -6298.878049716717, -187500.02235174447, -0.013218750000000001, 0.9571015625, 0.2509296875, 192.0, 0.0, 0.0, 0.0, 0.0, 0.0, 0.0, 0.0, 0.0, 0.0, 1.7076809710700476E9, 0.0, 2024-02-11 14:49:31.070
214.0, 36446.57569486806, 36262.24085834514, -11197.553419775179, 1718.8044451242024, 6224.536147658366, 6549.86578820536, -5774.573180028579, 13842.770617338494, 1752.7343932073586, -187500.02235174447, -1883.0674151262542, -35818.93871056303, -187500.02235174447, -4169.382651970703, -6298.878049716717, -187500.02235174447, -0.013218750000000001, 0.9571015625, 0.2509296875, 192.0, 0.0, 0.0, 0.0, 0.0, 0.0, 0.0, 0.0, 0.0, 0.0, 1.707680971070054E9, 0.0, 2024-02-11 14:49:31.070
214.0, 36323.73050734169, 36354.419452478825, -11097.238790659761, 1818.8955567950675, 6307.572878309832, 6637.238757281156, -5666.077812442519, 12719.975438115054, 1752.7343932073586, -187500.02235174447, -1883.0674151262542, -35818.93871056303, -187500.02235174447, -4169.382651970703, -6298.878049716717, -187500.02235174447, -0.013218750000000001, 0.9571015625, 0.2509296875, 192.0, 0.0, 0.0, 0.0, 0.0, 0.0, 0.0, 0.0, 0.0, 0.0, 1.7076809710858955E9, 0.0, 2024-02-11 14:49:31.085
214.0, 36402.721572246744, 36261.145622866825, -11169.524332228224, 1736.7752476662695, 6232.292202984358, 6559.097058665402, -5729.936746351332, 13869.972690340603, 1752.7343932073586, -187500.02235174447, -1883.0674151262542, -35818.93871056303, -187500.02235174447, -4169.382651970703, -6298.878049716717, -187500.02235174447, -0.013218750000000001, 0.9571015625, 0.2509296875, 192.0, 0.0, 0.0, 0.0, 0.0, 0.0, 0.0, 0.0, 0.0, 0.0, 1.7076809711339269E9, 0.0, 2024-02-11 14:49:31.133
250.0, 36351.401966977355, 36273.93082069526, -11180.54374224469, 1723.1183318040767, 6228.13477851567, 6569.378861114844, -5697.884344802421, 13810.226477411567, 1542.404477882919, -187500.02235174447, -2026.9902976739763, -35990.91303240216, -187500.02235174447, -4315.3171915194025, -6376.483306465543, -187500.02235174447, -0.012609375, 0.95855078125, 0.24746484375, 192.0, 127.5, 80.0, 15.0, 0.0, 3.5, 80.0, 0.0, 0.0, 0.0, 1.7076809712070787E9, 0.0, 2024-02-11 14:49:31.207
252.0, 36341.45544069474, 36277.61885853039, -11152.559358186647, 1754.5672362526939, 6239.109485043226, 6570.831724504438, -5702.019417526653, 13747.239261536512, 1588.761995883226, -187500.02235174447, -2002.9621723845212, -35952.95977031705, -187500.02235174447, -4290.126775518272, -6404.758263201507, -187500.02235174447, -0.012609375, 0.95855078125, 0.24746484375, 192.0, 0.0, 0.0, 0.0, 0.0, 0.0, 0.0, 0.0, 0.0, 0.0, 1.7076809712070985E9, 0.0, 2024-02-11 14:49:31.207
254.0, 36300.23882391916, 36295.679068050275, -11156.292099510682, 1742.5643494801939, 6245.479732212989, 6586.857925278893, -5680.897019016388, 13645.851748687239, 1596.607458187039, -187500.02235174447, -1983.3596924972169, -35947.01420629194, -187500.02235174447, -4285.209391738104, -6371.230646518547, -187500.02235174447, -0.012609375, 0.95855078125, 0.24746484375, 192.0, 0.0, 0.0, 0.0, 0.0, 0.0, 0.0, 0.0, 0.0, 0.0, 1.7076809712071104E9, 0.0, 2024-02-11 14:49:31.207
0.0, 36293.42154186029, 36312.2193589472, -11130.878166064998, 1764.9384456799562, 6261.7070986875415, 6599.777233574061, -5693.3245889335385, 13554.030782464837, 1605.3469902690638, -187500.02235174447, -1962.0808317757646, -35922.96372925803, -187500.02235174447, -4273.810002065898, -6409.854460937317, -187500.02235174447, -0.012609375, 0.95855078125, 0.24746484375, 192.0, 0.0, 0.0, 0.0, 0.0, 0.0, 0.0, 0.0, 0.0, 0.0, 1.7076809712071187E9, 0.0, 2024-02-11 14:49:31.207
2.0, 36240.82788715695, 36349.52442044311, -11129.738227097778, 1755.5060095198166, 6273.888799415684, 6627.068713553991, -5659.953434461765, 13422.669580300997, 1606.732798425293, -187500.02235174447, -1955.2188462279853, -35920.79561004587, -187500.02235174447, -4271.0607374978945, -6390.296684538924, -187500.02235174447, -0.012609375, 0.95855078125, 0.24746484375, 192.0, 0.0, 0.0, 0.0, 0.0, 0.0, 0.0, 0.0, 0.0, 0.0, 1.7076809712071276E9, 0.0, 2024-02-11 14:49:31.207
4.0, 36170.59870607838, 36378.58168823501, -11091.852020246031, 1788.139556424565, 6302.230811385013, 6653.421420266798, -5642.250852853162, 13179.236731438248, 1669.6306073225269, -187500.02235174447, -1937.2033401970077, -35875.06394089031, -187500.02235174447, -4244.9986034630065, -6442.756228775529, -187500.02235174447, -0.0113046875, 0.9582753906250001, 0.244732421875, 192.0, 127.5, 88.0, 14.5, 120.0, 3.5, 72.0, 0.0, 0.0, 0.0, 1.7076809712230828E9, 0.0, 2024-02-11 14:49:31.223
6.0, 36153.09729016987, 36390.58457500751, -11089.952121967332, 1792.7440157823582, 6308.623410299231, 6659.232873825178, -5628.035143379587, 13015.443148069759, 1717.0386573122332, -187500.02235174447, -1898.1101391446757, -35833.310882247795, -187500.02235174447, -4215.78487345992, -6389.581428716354, -187500.02235174447, -0.0113046875, 0.9582753906250001, 0.244732421875, 192.0, 0.0, 0.0, 0.0, 0.0, 0.0, 0.0, 0.0, 0.0, 0.0, 1.7076809712551546E9, 0.0, 2024-02-11 14:49:31.255
8.0, 36029.29097763193, 36453.54943913811, -11001.819193580055, 1870.9304178870225, 6382.473573979566, 6714.821662285526, -5589.3666254719055, 10718.577887842404, 1754.3213670636853, -187500.02235174447, -1882.0839383702205, -35812.36729769317, -187500.02235174447, -4200.78685293041, -6429.278126868979, -187500.02235174447, -0.0113046875, 0.9582753906250001, 0.244732421875, 192.0, 0.0, 0.0, 0.0, 0.0, 0.0, 0.0, 0.0, 0.0, 0.0, 1.70768097129114E9, 0.0, 2024-02-11 14:49:31.291
10.0, 36063.310332692905, 36408.868301971954, -11069.835551957554, 1803.8081292877353, 6318.592288326298, 6677.002510667147, -5592.987608073665, 12570.576378175781, 1826.5622051432379, -187500.02235174447, -1832.7089348684474, -35760.13127090112, -187500.02235174447, -4159.480829177002, -6357.819599845362, -187500.02235174447, -0.0113046875, 0.9582753906250001, 0.244732421875, 192.0, 0.0, 0.0, 0.0, 0.0, 0.0, 0.0, 0.0, 0.0, 0.0, 1.7076809712911673E9, 0.0, 2024-02-11 14:49:31.291
10.0, 35920.57209260132, 36472.23549750275, -10986.351786416983, 1874.1714208330418, 6398.969161387582, 6746.114104522956, -5533.151988166808, 10560.32753709883, 1826.5622051432379, -187500.02235174447, -1832.7089348684474, -35760.13127090112, -187500.02235174447, -4159.480829177002, -6357.819599845362, -187500.02235174447, -0.0113046875, 0.9582753906250001, 0.244732421875, 192.0, 0.0, 0.0, 0.0, 0.0, 0.0, 0.0, 0.0, 0.0, 0.0, 1.7076809712911751E9, 0.0, 2024-02-11 14:49:31.291
38.0, 35877.94731592504, 36483.45607321931, -10976.449963623281, 1882.910952915067, 6411.106158626814, 6762.9896715867135, -5523.563089795482, 10548.726981726526, 1907.810796238279, -187500.02235174447, -1667.4177846214516, -35659.72723480788, -187500.02235174447, -3979.8175072452436, -6016.843738179653, -187500.02235174447, -0.0113046875, 0.9582753906250001, 0.244732421875, 192.0, 0.0, 0.0, 0.0, 0.0, 0.0, 0.0, 0.0, 0.0, 0.0, 1.707680971319258E9, 0.0, 2024-02-11 14:49:31.319
38.0, 35903.16008367063, 36450.24138095872, -11037.067894586075, 1805.1939374439644, 6342.3968961712, 6720.923688521825, -5582.683453879768, 11873.604282570397, 1907.810796238279, -187500.02235174447, -1667.4177846214516, -35659.72723480788, -187500.02235174447, -3979.8175072452436, -6016.843738179653, -187500.02235174447, -0.0113046875, 0.9582753906250001, 0.244732421875, 192.0, 0.0, 0.0, 0.0, 0.0, 0.0, 0.0, 0.0, 0.0, 0.0, 1.7076809713192928E9, 0.0, 2024-02-11 14:49:31.319
36.0, 35814.4013064386, 36482.42789297437, -10989.324568429538, 1846.1646850305422, 6391.906010139705, 6757.468790706253, -5515.695275747214, 10565.535493556918, 1975.7600993824126, -187500.02235174447, -1606.531632725195, -35599.22106256736, -187500.02235174447, -3927.2462042863617, -5963.668938120478, -187500.02235174447, -0.0113046875, 0.9582753906250001, 0.244732421875, 192.0, 0.0, 0.0, 0.0, 0.0, 0.0, 0.0, 0.0, 0.0, 0.0, 1.7076809714063225E9, 0.0, 2024-02-11 14:49:31.406
32.0, 36310.99001300216, 36371.71970268723, -11093.930732480376, 1811.0500944912546, 6321.565070338854, 6641.574995705485, -5659.126419916919, 11571.207531834547, 2059.959120745554, -187500.02235174447, -1530.7368672772488, -35503.890872465476, -187500.02235174447, -3851.7643632607897, -5999.431729248969, -187500.02235174447, -0.012, 0.9580000000000001, 0.248, 192.0, 0.0, 0.0, 0.0, 0.0, 0.0, 0.0, 0.0, 0.0, 0.0, 1.707680971406357E9, 0.0, 2024-02-11 14:49:31.406
40.0, 36298.60714657392, 36373.32902828801, -11105.218363430306, 1786.0608441902214, 6307.125843420726, 6639.943318360248, -5665.071983942031, 11697.561943240398, 1844.4883041963942, -187500.02235174447, -1713.1047502880992, -35707.06822956422, -187500.02235174447, -4005.7455308134, -6042.3470786031585, -187500.02235174447, -0.012, 0.9580000000000001, 0.248, 192.0, 0.0, 0.0, 0.0, 0.0, 0.0, 0.0, 0.0, 0.0, 0.0, 1.7076809714063663E9, 0.0, 2024-02-11 14:49:31.406
58.0, 36323.35052768594, 36380.45923476925, -11114.561392612624, 1774.4379370734619, 6309.986866711005, 6649.576920220486, -5666.524847331625, 12252.935737721413, 1757.2941490762412, -187500.02235174447, -1833.5359494132936, -35809.03688776933, -187500.02235174447, -4171.617826416234, -6253.749877661452, -187500.02235174447, -0.012, 0.9580000000000001, 0.248, 192.0, 0.0, 0.0, 0.0, 0.0, 0.0, 0.0, 0.0, 0.0, 0.0, 1.7076809714063778E9, 0.0, 2024-02-11 14:49:31.406
58.0, 36304.32919315448, 36392.70799073076, -11104.704273307834, 1778.1930301419534, 6309.405721355167, 6646.358269018921, -5653.091448913986, 11907.713044609196, 1757.2941490762412, -187500.02235174447, -1833.5359494132936, -35809.03688776933, -187500.02235174447, -4171.617826416234, -6253.749877661452, -187500.02235174447, -0.012, 0.9580000000000001, 0.248, 192.0, 0.0, 0.0, 0.0, 0.0, 0.0, 0.0, 0.0, 0.0, 0.0, 1.707680971406384E9, 0.0, 2024-02-11 14:49:31.406
48.0, 36330.25721672264, 36332.00065279015, -11153.319317498126, 1741.402058768518, 6271.363052292234, 6606.348646443921, -5740.307955778594, 12522.967162485977, 1818.493225394872, -187500.02235174447, -1739.0104221118002, -35726.84952340717, -187500.02235174447, -4041.910653342087, -6112.442149215001, -187500.02235174447, -0.012, 0.9580000000000001, 0.248, 192.0, 0.0, 0.0, 0.0, 0.0, 0.0, 0.0, 0.0, 0.0, 0.0, 1.707680971406396E9, 0.0, 2024-02-11 14:49:31.406
48.0, 36207.07675302944, 36346.797507619565, -11119.702293837345, 1757.3612043096073, 6284.461174543045, 6629.080370554969, -5675.957283491764, 12227.812376953647, 1818.493225394872, -187500.02235174447, -1739.0104221118002, -35726.84952340717, -187500.02235174447, -4041.910653342087, -6112.442149215001, -187500.02235174447, -0.01, 0.9580000000000001, 0.252, 192.0, 127.5, 96.0, 14.5, 120.0, 4.0, 0.0, 0.0, 0.0, 0.0, 1.707680971406402E9, 0.0, 2024-02-11 14:49:31.406
48.0, 36292.72863778217, 36373.10551084346, -11107.855869276033, 1778.2377336308639, 6301.426148584623, 6645.0618678405135, -5678.214809681751, 12315.699436151916, 1818.493225394872, -187500.02235174447, -1739.0104221118002, -35726.84952340717, -187500.02235174447, -4041.910653342087, -6112.442149215001, -187500.02235174447, -0.01, 0.9580000000000001, 0.252, 192.0, 63.75, 48.0, 7.25, 60.0, 2.0, 0.0, 0.0, 0.0, 0.0, 1.707680971406408E9, 0.0, 2024-02-11 14:49:31.406
48.0, 36322.94819628575, 36339.55554241604, -11129.15708174194, 1762.0327189007664, 6284.014139653938, 6614.59644014793, -5676.963111992253, 12464.338536779707, 1818.493225394872, -187500.02235174447, -1739.0104221118002, -35726.84952340717, -187500.02235174447, -4041.910653342087, -6112.442149215001, -187500.02235174447, -0.01, 0.9580000000000001, 0.252, 192.0, 31.875, 24.0, 3.625, 30.0, 1.0, 0.0, 0.0, 0.0, 0.0, 1.7076809714064136E9, 0.0, 2024-02-11 14:49:31.406
48.0, 36333.162943501826, 36342.99771106216, -11131.168738742917, 1766.1454398805429, 6283.1871251090915, 6608.181489489257, -5693.771623822645, 12444.84781561468, 1818.493225394872, -187500.02235174447, -1739.0104221118002, -35726.84952340717, -187500.02235174447, -4041.910653342087, -6112.442149215001, -187500.02235174447, -0.01, 0.9580000000000001, 0.252, 192.0, 15.9375, 12.0, 1.8125, 15.0, 0.5, 0.0, 0.0, 0.0, 0.0, 1.7076809714064193E9, 0.0, 2024-02-11 14:49:31.406
48.0, 36196.97376453564, 36355.13470830139, -11123.591497372568, 1746.8558844156128, 6282.740090219986, 6640.658574182818, -5676.3596148919605, 12251.214653398354, 1818.493225394872, -187500.02235174447, -1739.0104221118002, -35726.84952340717, -187500.02235174447, -4041.910653342087, -6112.442149215001, -187500.02235174447, -0.01, 0.9580000000000001, 0.252, 192.0, 7.96875, 6.0, 0.90625, 7.5, 0.25, 0.0, 0.0, 0.0, 0.0, 1.7076809714064245E9, 0.0, 2024-02-11 14:49:31.406
48.0, 36261.70441647821, 36353.4806792117, -11127.81597707462, 1750.0745356171772, 6281.95777916405, 6631.293193256044, -5695.626818612435, 12396.635102824583, 1818.493225394872, -187500.02235174447, -1739.0104221118002, -35726.84952340717, -187500.02235174447, -4041.910653342087, -6112.442149215001, -187500.02235174447, -0.01, 0.9580000000000001, 0.252, 192.0, 3.984375, 3.0, 0.453125, 3.75, 0.125, 0.0, 0.0, 0.0, 0.0, 1.7076809714543593E9, 0.0, 2024-02-11 14:49:31.454
68.0, 36168.43058686621, 36350.82082162152, -11102.849078518044, 1767.263027103308, 6289.199744367569, 6631.829635122971, -5659.752268761667, 12072.668918689362, 1720.5702329361718, -187500.02235174447, -1843.9965658183773, -35831.36628048018, -187500.02235174447, -4149.91428255013, -6281.466040786033, -187500.02235174447, -0.01, 0.9580000000000001, 0.252, 192.0, 0.0, 0.0, 0.0, 0.0, 0.0, 0.0, 0.0, 0.0, 0.0, 1.7076809716395135E9, 0.0, 2024-02-11 14:49:31.639
74.0, 36148.51518255653, 36373.351380032465, -11101.351511639537, 1760.043413644244, 6298.051035171871, 6654.494304000653, -5664.982576964209, 12070.67961343284, 1763.7761549682803, -187500.02235174447, -1785.7032162789365, -35783.600602579194, -187500.02235174447, -4112.653924543134, -6271.474811014511, -187500.02235174447, -0.01, 0.9580000000000001, 0.252, 192.0, 0.0, 0.0, 0.0, 0.0, 0.0, 0.0, 0.0, 0.0, 0.0, 1.7076809716645806E9, 0.0, 2024-02-11 14:49:31.664
74.0, 36120.03906012047, 36352.89953385586, -11106.96179949782, 1756.82476244268, 6291.971360680028, 6634.042457824047, -5664.289672886094, 11297.130441323572, 1763.7761549682803, -187500.02235174447, -1785.7032162789365, -35783.600602579194, -187500.02235174447, -4112.653924543134, -6271.474811014511, -187500.02235174447, -0.01, 0.9580000000000001, 0.252, 192.0, 0.0, 0.0, 0.0, 0.0, 0.0, 0.0, 0.0, 0.0, 0.0, 1.7076809716646037E9, 0.0, 2024-02-11 14:49:31.664
80.0, 36100.928318611186, 36369.35041777497, -11085.258255631716, 1778.0812714196768, 6305.695331775586, 6650.158065576323, -5651.012736679642, 11262.75345835131, 1825.9810597873998, -187500.02235174447, -1759.6634339885038, -35741.22169509193, -187500.02235174447, -4111.201061153539, -6261.23771205398, -187500.02235174447, -0.01, 0.9580000000000001, 0.252, 192.0, 0.0, 0.0, 0.0, 0.0, 0.0, 0.0, 0.0, 0.0, 0.0, 1.7076809717066185E9, 0.0, 2024-02-11 14:49:31.706
82.0, 36095.742713897554, 36406.834293226515, -11077.636310772457, 1786.7761000127912, 6323.464968617555, 6682.478688058697, -5620.390846775871, 11804.470336970131, 1840.196769260975, -187500.02235174447, -1759.6187304995933, -35738.718299712935, -187500.02235174447, -4114.330305377282, -6253.302842772347, -187500.02235174447, -0.009000000000000001, 0.9560000000000001, 0.253, 192.0, 127.5, 96.0, 14.5, 104.0, 3.5, 120.0, 0.0, 0.0, 0.0, 1.7076809717547188E9, 0.0, 2024-02-11 14:49:31.754
82.0, 36112.52887398349, 36378.24641206818, -11099.183392427372, 1768.8052974707243, 6303.281343374413, 6649.867492898405, -5643.524902287114, 11287.675653418977, 1840.196769260975, -187500.02235174447, -1759.6187304995933, -35738.718299712935, -187500.02235174447, -4114.330305377282, -6253.302842772347, -187500.02235174447, -0.009000000000000001, 0.9560000000000001, 0.253, 192.0, 63.75, 48.0, 7.25, 52.0, 1.75, 60.0, 0.0, 0.0, 0.0, 1.7076809717947867E9, 0.0, 2024-02-11 14:49:31.794
82.0, 36115.322842040405, 36375.586554477995, -11093.975435969287, 1774.2814748622745, 6302.543735807388, 6648.727553931183, -5673.319777646038, 11281.193647526938, 1840.196769260975, -187500.02235174447, -1759.6187304995933, -35738.718299712935, -187500.02235174447, -4114.330305377282, -6253.302842772347, -187500.02235174447, -0.009000000000000001, 0.9560000000000001, 0.253, 192.0, 31.875, 24.0, 3.625, 26.0, 0.875, 30.0, 0.0, 0.0, 0.0, 1.70768097179481E9, 0.0, 2024-02-11 14:49:31.794
86.0, 36100.011897088516, 36382.76146444815, -11103.787851785166, 1757.8976461765346, 6296.620523526732, 6647.252338797133, -5692.184649966318, 11271.09065903314, 1860.8050776487682, -187500.02235174447, -1736.7975994107246, -35717.528845969304, -187500.02235174447, -4086.457680041514, -6236.382572219679, -187500.02235174447, -0.009000000000000001, 0.9560000000000001, 0.253, 192.0, 0.0, 0.0, 0.0, 0.0, 0.0, 0.0, 0.0, 0.0, 0.0, 1.7076809717948196E9, 0.0, 2024-02-11 14:49:31.794
120.0, 36106.359792513824, 36374.11133934395, -11085.48177307627, 1772.3815765835736, 6297.782814238408, 6641.977327105681, -5635.0982946274635, 11261.971147295375, 1874.260827810863, -187500.02235174447, -1680.2476859387978, -35683.95652579743, -187500.02235174447, -4006.974876758442, -6157.190341614526, -187500.02235174447, -0.009000000000000001, 0.9560000000000001, 0.253, 192.0, 0.0, 0.0, 0.0, 0.0, 0.0, 0.0, 0.0, 0.0, 0.0, 1.7076809718187764E9, 0.0, 2024-02-11 14:49:31.818
118.0, 36080.655286390225, 36388.39410405089, -11087.024043443686, 1758.9705299103894, 6301.672017773631, 6657.467086013208, -5643.234329609195, 11217.602934551589, 1882.7768424483352, -187500.02235174447, -1664.981444475823, -35667.39388315605, -187500.02235174447, -3997.8553650206763, -6135.866777404163, -187500.02235174447, -0.009000000000000001, 0.9560000000000001, 0.253, 192.0, 0.0, 0.0, 0.0, 0.0, 0.0, 0.0, 0.0, 0.0, 0.0, 1.707680971892873E9, 0.0, 2024-02-11 14:49:31.892
134.0, 36056.22482970057, 36421.76525852266, -11053.384668038449, 1792.5875535711712, 6329.656401831675, 6686.189077638278, -5616.63575370738, 11090.488563834258, 1878.328845301729, -187500.02235174447, -1708.2544217412976, -35700.16154052753, -187500.02235174447, -4031.9864788039304, -6182.179591915559, -187500.02235174447, -0.0115, 0.9570000000000001, 0.2555, 192.0, 127.5, 72.0, 14.5, 120.0, 4.0, 8.0, 0.0, 0.0, 0.0, 1.7076809719729655E9, 0.0, 2024-02-11 14:49:31.972
168.0, 36115.14402808476, 36372.61377246544, -11097.708177293323, 1764.6031695131267, 6305.315352119846, 6647.654670197328, -5656.243044882184, 11278.354975981114, 1894.556211776282, -187500.02235174447, -1702.7335408608367, -35689.03037178879, -187500.02235174447, -4037.932042829042, -6163.202960873004, -187500.02235174447, -0.0115, 0.9570000000000001, 0.2555, 192.0, 0.0, 0.0, 0.0, 0.0, 0.0, 0.0, 0.0, 0.0, 0.0, 1.707680972069067E9, 0.0, 2024-02-11 14:49:32.069
168.0, 36127.9292259132, 36374.58072597751, -11105.017197730207, 1764.334948579663, 6301.336741606801, 6639.406876493321, -5631.678477725802, 11261.837036828641, 1894.556211776282, -187500.02235174447, -1702.7335408608367, -35689.03037178879, -187500.02235174447, -4037.932042829042, -6163.202960873004, -187500.02235174447, -0.0115, 0.9570000000000001, 0.2555, 192.0, 0.0, 0.0, 0.0, 0.0, 0.0, 0.0, 0.0, 0.0, 0.0, 1.7076809720851543E9, 0.0, 2024-02-11 14:49:32.085
242.0, 36109.75725767103, 36364.99182760618, -11092.544924324147, 1771.8004312277355, 6303.862488730251, 6646.31356553001, -5625.107064855942, 11253.94687103592, 1470.543619459107, -187500.02235174447, -2033.7852279883896, -36086.511443437514, -187500.02235174447, -4373.901113736762, -6409.407426048211, -187500.02235174447, -0.0115, 0.9570000000000001, 0.2555, 192.0, 0.0, 0.0, 0.0, 0.0, 0.0, 0.0, 0.0, 0.0, 0.0, 1.7076809721011565E9, 0.0, 2024-02-11 14:49:32.101
240.0, 36094.33455399687, 36380.79451093609, -11076.362261338505, 1781.7916609992578, 6314.859547002262, 6659.299929058544, -5639.479236540704, 11218.45230084089, 1475.4162997503638, -187500.02235174447, -2035.5733675448141, -36091.76410338451, -187500.02235174447, -4380.137250439793, -6397.426891020166, -187500.02235174447, -0.0115, 0.9570000000000001, 0.2555, 192.0, 0.0, 0.0, 0.0, 0.0, 0.0, 0.0, 0.0, 0.0, 0.0, 1.7076809721332643E9, 0.0, 2024-02-11 14:49:32.133
238.0, 36135.953502172655, 36373.217269565735, -11087.806354499622, 1778.0812714196768, 6310.925639978128, 6644.7712951625945, -5630.538538758581, 11271.42593519997, 1449.3765174599312, -187500.02235174447, -2067.491658626993, -36111.59010071637, -187500.02235174447, -4401.460814650156, -6458.022470238504, -187500.02235174447, -0.0115, 0.9570000000000001, 0.2555, 192.0, 0.0, 0.0, 0.0, 0.0, 0.0, 0.0, 0.0, 0.0, 0.0, 1.7076809722102766E9, 0.0, 2024-02-11 14:49:32.210
6.0, 36086.48909169306, 36379.1851853353, -11090.91324697891, 1773.8120882287133, 6317.228831914525, 6653.734344689173, -5668.31298688805, 11190.847896438587, 1747.4146780269955, -187500.02235174447, -1861.8556096381676, -35880.38365607067, -187500.02235174447, -4222.088065396317, -6394.990550874538, -187500.02235174447, -0.00975, 0.9555, 0.25575000000000003, 192.0, 127.5, 96.0, 14.5, 104.0, 4.0, 0.0, 0.0, 0.0, 0.0, 1.7076809722102983E9, 0.0, 2024-02-11 14:49:32.210
232.0, 36129.91853116972, 36377.30763880106, -11100.323331394593, 1772.9403701949561, 6309.450424844078, 6645.93358587427, -5668.31298688805, 11275.292786990738, 1473.2705322826544, -187500.02235174447, -1997.709512437524, -36095.65330691973, -187500.02235174447, -4329.912880648718, -6214.634324864665, -187500.02235174447, -0.01, 0.96, 0.258, 192.0, 0.0, 0.0, 0.0, 0.0, 0.0, 0.0, 0.0, 0.0, 0.0, 1.707680972210313E9, 0.0, 2024-02-11 14:49:32.210
228.0, 36152.73966225859, 36275.02605617357, -11197.285198841715, 1650.9221972134349, 6212.734426585964, 6564.3497186124, -5732.931880108343, 13058.358497423947, 1596.5851064425835, -187500.02235174447, -1863.9566736169666, -35960.82758436532, -187500.02235174447, -4191.667341192644, -6132.8045884137855, -187500.02235174447, -0.01, 0.96, 0.258, 192.0, 0.0, 0.0, 0.0, 0.0, 0.0, 0.0, 0.0, 0.0, 0.0, 1.7076809722103276E9, 0.0, 2024-02-11 14:49:32.210
18.0, 36001.91009067417, 36385.46602552725, -11106.000674486242, 1722.0230963257668, 6297.983979938505, 6658.830542424982, -5666.994233965187, 11692.845725160329, 1815.5651468712267, -187500.02235174447, -1718.8491486131131, -35753.11282314215, -187500.02235174447, -4094.3701975786926, -6206.386531160657, -187500.02235174447, -0.01, 0.9580000000000001, 0.258, 192.0, 0.0, 0.0, 0.0, 0.0, 0.0, 0.0, 0.0, 0.0, 0.0, 1.707680972335482E9, 0.0, 2024-02-11 14:49:32.335
18.0, 35967.823680379835, 36352.877182111406, -11108.660532076423, 1715.4740352003616, 6279.476735529511, 6648.213463808712, -5703.695798360801, 12141.847567778537, 1815.5651468712267, -187500.02235174447, -1718.8491486131131, -35753.11282314215, -187500.02235174447, -4094.3701975786926, -6206.386531160657, -187500.02235174447, -0.01, 0.9580000000000001, 0.258, 192.0, 0.0, 0.0, 0.0, 0.0, 0.0, 0.0, 0.0, 0.0, 0.0, 1.7076809723355026E9, 0.0, 2024-02-11 14:49:32.335
8.0, 36040.06451845938, 36357.414586235835, -11113.801433301143, 1729.8015033962135, 6295.7488054929745, 6639.473931726687, -5677.208981181262, 11798.211848522646, 1744.4865995033504, -187500.02235174447, -1830.9207953120226, -35854.075652846775, -187500.02235174447, -4189.365111513747, -6347.4036869291895, -187500.02235174447, -0.01, 0.9580000000000001, 0.258, 192.0, 0.0, 0.0, 0.0, 0.0, 0.0, 0.0, 0.0, 0.0, 0.0, 1.7076809723355112E9, 0.0, 2024-02-11 14:49:32.335
24.0, 36022.22782638405, 36379.87808941342, -11094.042491202652, 1737.0658203441883, 6300.465023573044, 6651.834446410471, -5660.959262962254, 11661.73209687854, 1847.46108620895, -187500.02235174447, -1745.4477245149285, -35763.79695699179, -187500.02235174447, -4133.619860842212, -6288.931523434106, -187500.02235174447, -0.008, 0.9580000000000001, 0.26, 192.0, 127.5, 96.0, 14.5, 120.0, 4.0, 16.0, 0.0, 0.0, 0.0, 1.7076809723355236E9, 0.0, 2024-02-11 14:49:32.335
24.0, 36008.97324192205, 36393.557357020065, -11078.262159617205, 1747.9064164050124, 6309.740997521997, 6658.718783702706, -5682.908676017365, 11517.250420719436, 1847.46108620895, -187500.02235174447, -1745.4477245149285, -35763.79695699179, -187500.02235174447, -4133.619860842212, -6288.931523434106, -187500.02235174447, -0.008, 0.9580000000000001, 0.26, 192.0, 63.75, 48.0, 7.25, 60.0, 2.0, 8.0, 0.0, 0.0, 0.0, 1.70768097233553E9, 0.0, 2024-02-11 14:49:32.335
30.0, 35989.21429982356, 36414.72445901924, -11087.895761477443, 1737.91518663349, 6318.659343559664, 6674.543818777063, -5640.68623074129, 11439.175777337048, 1873.9255516440335, -187500.02235174447, -1738.1163523335879, -35757.85139296668, -187500.02235174447, -4109.971715208497, -6273.307654059846, -187500.02235174447, -0.008, 0.9580000000000001, 0.26, 192.0, 0.0, 0.0, 0.0, 0.0, 0.0, 0.0, 0.0, 0.0, 0.0, 1.7076809723355381E9, 0.0, 2024-02-11 14:49:32.335
50.0, 35983.201680565086, 36419.977118966235, -11066.751011222723, 1759.6634339885038, 6337.9488990245945, 6686.792574738572, -5633.846596937967, 11357.144875186072, 1956.7611165954015, -187500.02235174447, -1609.4597112488404, -35640.43767934295, -187500.02235174447, -3999.263524921361, -6152.8764549346515, -187500.02235174447, -0.008, 0.9580000000000001, 0.26, 192.0, 0.0, 0.0, 0.0, 0.0, 0.0, 0.0, 0.0, 0.0, 0.0, 1.707680972335546E9, 0.0, 2024-02-11 14:49:32.335
34.0, 35978.083131084815, 36410.79055199511, -11066.48279028926, 1756.9141694205011, 6335.579614112332, 6676.488420544675, -5631.857291681444, 11237.36187665008, 1911.3870753511283, -187500.02235174447, -1674.6373980805158, -35690.19266250046, -187500.02235174447, -4035.674516639056, -6212.265039952403, -187500.02235174447, -0.006, 0.9560000000000001, 0.262, 192.0, 127.5, 104.0, 14.5, 112.0, 4.0, 24.0, 0.0, 0.0, 0.0, 1.7076809723355532E9, 0.0, 2024-02-11 14:49:32.335
38.0, 35964.82854662282, 36418.32308987655, -11077.256331116716, 1741.8043901687136, 6336.138407723714, 6679.595313023962, -5626.783445690089, 11184.365890546547, 1915.388037608628, -187500.02235174447, -1638.4275720629182, -35666.38805465556, -187500.02235174447, -4016.0273332628412, -6181.732557026453, -187500.02235174447, -0.006, 0.9560000000000001, 0.262, 192.0, 0.0, 0.0, 0.0, 0.0, 0.0, 0.0, 0.0, 0.0, 0.0, 1.7076809723355608E9, 0.0, 2024-02-11 14:49:32.335
38.0, 35976.607915950764, 36413.58452005202, -11079.156229395418, 1738.5186837337833, 6329.0305529869265, 6676.197847866756, -5641.066210397031, 11035.145644562917, 1915.388037608628, -187500.02235174447, -1638.4275720629182, -35666.38805465556, -187500.02235174447, -4016.0273332628412, -6181.732557026453, -187500.02235174447, -0.006, 0.9560000000000001, 0.262, 192.0, 0.0, 0.0, 0.0, 0.0, 0.0, 0.0, 0.0, 0.0, 0.0, 1.7076809723355663E9, 0.0, 2024-02-11 14:49:32.335
38.0, 35973.053988582375, 36401.58163327952, -11064.582892010558, 1744.5760064811716, 6317.921735992639, 6663.613815738418, -5642.452018553259, 11044.667487700879, 1915.388037608628, -187500.02235174447, -1638.4275720629182, -35666.38805465556, -187500.02235174447, -4016.0273332628412, -6181.732557026453, -187500.02235174447, -0.006, 0.9560000000000001, 0.262, 192.0, 0.0, 0.0, 0.0, 0.0, 0.0, 0.0, 0.0, 0.0, 0.0, 1.7076809723355718E9, 0.0, 2024-02-11 14:49:32.335
54.0, 35991.13654984672, 36409.717668261255, -11064.448781543826, 1755.662471731004, 6345.883768306228, 6680.534086291085, -5640.9097481858435, 10958.009774447653, 1949.2509304584182, -187500.02235174447, -1631.9679179153345, -35652.597028326636, -187500.02235174447, -4009.2100512039724, -6173.46241157799, -187500.02235174447, -0.004, 0.9580000000000001, 0.256, 192.0, 127.5, 112.0, 14.5, 120.0, 4.0, 0.0, 0.0, 0.0, 0.0, 1.707680972383531E9, 0.0, 2024-02-11 14:49:32.383
52.0, 35992.25413706948, 36428.13550569242, -11071.556636280613, 1756.6459484870375, 6352.231663731535, 6682.70220550325, -5644.038992409586, 10874.704822862725, 1972.7649656254014, -187500.02235174447, -1627.0281823907117, -35643.8127927557, -187500.02235174447, -4003.040969734308, -6179.430327347556, -187500.02235174447, -0.004, 0.9580000000000001, 0.256, 192.0, 0.0, 0.0, 0.0, 0.0, 0.0, 0.0, 0.0, 0.0, 0.0, 1.7076809723835523E9, 0.0, 2024-02-11 14:49:32.383
56.0, 35957.675988397124, 36439.87017153146, -11048.891967402931, 1767.5535997812271, 6355.360907955278, 6695.375644609409, -5619.340314786472, 10770.143362300798, 1991.2051548010297, -187500.02235174447, -1623.6530689779604, -35631.541685049735, -187500.02235174447, -3988.713501538456, -6170.802553987808, -187500.02235174447, -0.004, 0.9580000000000001, 0.256, 192.0, 0.0, 0.0, 0.0, 0.0, 0.0, 0.0, 0.0, 0.0, 0.0, 1.7076809724525273E9, 0.0, 2024-02-11 14:49:32.452
